# Wavelength(Î¼m) Extinction_cofficient
0.365	2.775
0.366	2.779
0.367	2.782
0.368	2.786
0.369	2.789
0.37	2.791
0.371	2.794
0.372	2.796
0.373	2.798
0.374	2.8
0.375	2.801
0.376	2.802
0.377	2.803
0.378	2.803
0.379	2.803
0.38	2.803
0.381	2.803
0.382	2.802
0.383	2.8
0.384	2.799
0.385	2.797
0.386	2.794
0.387	2.792
0.388	2.789
0.389	2.785
0.39	2.782
0.391	2.778
0.392	2.773
0.393	2.768
0.394	2.763
0.395	2.758
0.396	2.752
0.397	2.746
0.398	2.74
0.399	2.733
0.4	2.726
0.401	2.719
0.402	2.712
0.403	2.704
0.404	2.696
0.405	2.688
0.406	2.68
0.407	2.672
0.408	2.664
0.409	2.656
0.41	2.648
0.411	2.639
0.412	2.631
0.413	2.623
0.414	2.615
0.415	2.607
0.416	2.599
0.417	2.592
0.418	2.584
0.419	2.577
0.42	2.569
0.421	2.561
0.422	2.553
0.423	2.544
0.424	2.535
0.425	2.524
0.426	2.513
0.427	2.499
0.428	2.483
0.429	2.465
0.43	2.444
0.431	2.419
0.432	2.39
0.433	2.357
0.434	2.32
0.435	2.279
0.436	2.233
0.437	2.184
0.438	2.131
0.439	2.076
0.44	2.019
0.441	1.96
0.442	1.902
0.443	1.843
0.444	1.785
0.445	1.729
0.446	1.674
0.447	1.622
0.448	1.571
0.449	1.523
0.45	1.477
0.451	1.434
0.452	1.393
0.453	1.354
0.454	1.318
0.455	1.283
0.456	1.251
0.457	1.22
0.458	1.191
0.459	1.164
0.46	1.139
0.461	1.115
0.462	1.092
0.463	1.071
0.464	1.051
0.465	1.033
0.466	1.015
0.467	0.9991
0.468	0.984
0.469	0.9701
0.47	0.9573
0.471	0.9455
0.472	0.9348
0.473	0.925
0.474	0.9163
0.475	0.9086
0.476	0.9018
0.477	0.896
0.478	0.8912
0.479	0.8873
0.48	0.8844
0.481	0.8824
0.482	0.8814
0.483	0.8813
0.484	0.8821
0.485	0.8838
0.486	0.8864
0.487	0.8899
0.488	0.8943
0.489	0.8995
0.49	0.9056
0.491	0.9124
0.492	0.92
0.493	0.9282
0.494	0.9371
0.495	0.9466
0.496	0.9565
0.497	0.9668
0.498	0.9774
0.499	0.9881
0.5	0.9988
0.501	1.009
0.502	1.019
0.503	1.029
0.504	1.038
0.505	1.046
0.506	1.052
0.507	1.058
0.508	1.061
0.509	1.062
0.51	1.062
0.511	1.059
0.512	1.053
0.513	1.045
0.514	1.033
0.515	1.019
0.516	1.002
0.517	0.9819
0.518	0.9591
0.519	0.9338
0.52	0.9062
0.521	0.8764
0.522	0.8449
0.523	0.812
0.524	0.778
0.525	0.7432
0.526	0.7081
0.527	0.673
0.528	0.638
0.529	0.6036
0.53	0.57
0.531	0.5373
0.532	0.5058
0.533	0.4755
0.534	0.4466
0.535	0.4191
0.536	0.3931
0.537	0.3685
0.538	0.3455
0.539	0.3239
0.54	0.3038
0.541	0.2852
0.542	0.2679
0.543	0.2519
0.544	0.2372
0.545	0.2237
0.546	0.2113
0.547	0.1999
0.548	0.1895
0.549	0.18
0.55	0.1715
0.551	0.1638
0.552	0.157
0.553	0.1509
0.554	0.1456
0.555	0.141
0.556	0.1371
0.557	0.1339
0.558	0.1314
0.559	0.1295
0.56	0.1282
0.561	0.1275
0.562	0.1275
0.563	0.1281
0.564	0.1293
0.565	0.1312
0.566	0.1337
0.567	0.1369
0.568	0.1408
0.569	0.1454
0.57	0.1508
0.571	0.157
0.572	0.164
0.573	0.1721
0.574	0.1811
0.575	0.1913
0.576	0.2026
0.577	0.2153
0.578	0.2295
0.579	0.2454
0.58	0.2631
0.581	0.2828
0.582	0.3049
0.583	0.3297
0.584	0.3574
0.585	0.3884
0.586	0.4233
0.587	0.4625
0.588	0.5066
0.589	0.556
0.59	0.6115
0.591	0.6736
0.592	0.7428
0.593	0.8196
0.594	0.9042
0.595	0.9962
0.596	1.095
0.597	1.199
0.598	1.308
0.599	1.417
0.6	1.526
0.601	1.629
0.602	1.724
0.603	1.805
0.604	1.869
0.605	1.911
0.606	1.928
0.607	1.918
0.608	1.881
0.609	1.817
0.61	1.732
0.611	1.631
0.612	1.52
0.613	1.405
0.614	1.29
0.615	1.179
0.616	1.075
0.617	0.9782
0.618	0.8904
0.619	0.8109
0.62	0.7395
0.621	0.6755
0.622	0.6183
0.623	0.5672
0.624	0.5216
0.625	0.4808
0.626	0.4442
0.627	0.4113
0.628	0.3818
0.629	0.3552
0.63	0.3312
0.631	0.3094
0.632	0.2896
0.633	0.2717
0.634	0.2553
0.635	0.2403
0.636	0.2266
0.637	0.214
0.638	0.2024
0.639	0.1917
0.64	0.1819
0.641	0.1728
0.642	0.1643
0.643	0.1565
0.644	0.1492
0.645	0.1424
0.646	0.136
0.647	0.1301
0.648	0.1246
0.649	0.1194
0.65	0.1145
0.651	0.1099
0.652	0.1056
0.653	0.1016
0.654	0.09777
0.655	0.09417
0.656	0.09076
0.657	0.08754
0.658	0.08449
0.659	0.0816
0.66	0.07886
0.661	0.07626
0.662	0.07378
0.663	0.07143
0.664	0.06919
0.665	0.06705
0.666	0.06502
0.667	0.06308
0.668	0.06122
0.669	0.05945
0.67	0.05776
0.671	0.05613
0.672	0.05458
0.673	0.0531
0.674	0.05167
0.675	0.0503
0.676	0.04899
0.677	0.04773
0.678	0.04652
0.679	0.04535
0.68	0.04423
0.681	0.04315
0.682	0.04211
0.683	0.04111
0.684	0.04015
0.685	0.03922
0.686	0.03832
0.687	0.03746
0.688	0.03662
0.689	0.03581
0.69	0.03503
0.691	0.03428
0.692	0.03355
0.693	0.03284
0.694	0.03216
0.695	0.03149
0.696	0.03085
0.697	0.03023
0.698	0.02963
0.699	0.02905
0.7	0.02848
0.701	0.02793
0.702	0.0274
0.703	0.02688
0.704	0.02637
0.705	0.02589
0.706	0.02541
0.707	0.02495
0.708	0.0245
0.709	0.02406
0.71	0.02364
0.711	0.02323
0.712	0.02282
0.713	0.02243
0.714	0.02205
0.715	0.02168
0.716	0.02132
0.717	0.02096
0.718	0.02062
0.719	0.02028
0.72	0.01996
0.721	0.01964
0.722	0.01933
0.723	0.01902
0.724	0.01873
0.725	0.01844
0.726	0.01815
0.727	0.01788
0.728	0.01761
0.729	0.01734
0.73	0.01709
0.731	0.01684
0.732	0.01659
0.733	0.01635
0.734	0.01611
0.735	0.01588
0.736	0.01566
0.737	0.01544
0.738	0.01522
0.739	0.01501
0.74	0.0148
0.741	0.0146
0.742	0.0144
0.743	0.01421
0.744	0.01402
0.745	0.01383
0.746	0.01365
0.747	0.01347
0.748	0.01329
0.749	0.01312
0.75	0.01295
0.751	0.01279
0.752	0.01262
0.753	0.01247
0.754	0.01231
0.755	0.01216
0.756	0.01201
0.757	0.01186
0.758	0.01171
0.759	0.01157
0.76	0.01143
0.761	0.01129
0.762	0.01116
0.763	0.01103
0.764	0.0109
0.765	0.01077
0.766	0.01064
0.767	0.01052
0.768	0.0104
0.769	0.01028
0.77	0.01016
0.771	0.01005
0.772	0.00994
0.773	0.00982
0.774	0.00971
0.775	0.00961
0.776	0.0095
0.777	0.0094
0.778	0.0093
0.779	0.0092
0.78	0.0091
0.781	0.009
0.782	0.0089
0.783	0.00881
0.784	0.00872
0.785	0.00862
0.786	0.00853
0.787	0.00844
0.788	0.00836
0.789	0.00827
0.79	0.00819
0.791	0.0081
0.792	0.00802
0.793	0.00794
0.794	0.00786
0.795	0.00778
0.796	0.0077
0.797	0.00763
0.798	0.00755
0.799	0.00748
0.8	0.00741
0.801	0.00733
0.802	0.00726
0.803	0.00719
0.804	0.00712
0.805	0.00705
0.806	0.00699
0.807	0.00692
0.808	0.00686
0.809	0.00679
0.81	0.00673
0.811	0.00666
0.812	0.0066
0.813	0.00654
0.814	0.00648
0.815	0.00642
0.816	0.00636
0.817	0.00631
0.818	0.00625
0.819	0.00619
0.82	0.00614
0.821	0.00608
0.822	0.00603
0.823	0.00597
0.824	0.00592
0.825	0.00587
0.826	0.00582
0.827	0.00577
0.828	0.00572
0.829	0.00567
0.83	0.00562
0.831	0.00557
0.832	0.00552
0.833	0.00547
0.834	0.00543
0.835	0.00538
0.836	0.00534
0.837	0.00529
0.838	0.00525
0.839	0.0052
0.84	0.00516
0.841	0.00512
0.842	0.00508
0.843	0.00503
0.844	0.00499
0.845	0.00495
0.846	0.00491
0.847	0.00487
0.848	0.00483
0.849	0.00479
0.85	0.00475
0.851	0.00471
0.852	0.00468
0.853	0.00464
0.854	0.0046
0.855	0.00457
0.856	0.00453
0.857	0.00449
0.858	0.00446
0.859	0.00442
0.86	0.00439
0.861	0.00436
0.862	0.00432
0.863	0.00429
0.864	0.00426
0.865	0.00422
0.866	0.00419
0.867	0.00416
0.868	0.00413
0.869	0.00409
0.87	0.00406
0.871	0.00403
0.872	0.004
0.873	0.00397
0.874	0.00394
0.875	0.00391
0.876	0.00388
0.877	0.00385
0.878	0.00383
0.879	0.0038
0.88	0.00377
0.881	0.00374
0.882	0.00371
0.883	0.00369
0.884	0.00366
0.885	0.00363
0.886	0.00361
0.887	0.00358
0.888	0.00355
0.889	0.00353
0.89	0.0035
0.891	0.00348
0.892	0.00345
0.893	0.00343
0.894	0.0034
0.895	0.00338
0.896	0.00335
0.897	0.00333
0.898	0.00331
0.899	0.00329
0.9	0.00326
0.901	0.00324
0.902	0.00322
0.903	0.00319
0.904	0.00317
0.905	0.00315
0.906	0.00313
0.907	0.00311
0.908	0.00308
0.909	0.00306
0.91	0.00304
0.911	0.00302
0.912	0.003
0.913	0.00298
0.914	0.00296
0.915	0.00294
0.916	0.00292
0.917	0.0029
0.918	0.00288
0.919	0.00286
0.92	0.00284
0.921	0.00282
0.922	0.0028
0.923	0.00278
0.924	0.00277
0.925	0.00275
0.926	0.00273
0.927	0.00271
0.928	0.00269
0.929	0.00267
0.93	0.00266
0.931	0.00264
0.932	0.00262
0.933	0.00261
0.934	0.00259
0.935	0.00257
0.936	0.00255
0.937	0.00254
0.938	0.00252
0.939	0.0025
0.94	0.00249
0.941	0.00247
0.942	0.00246
0.943	0.00244
0.944	0.00242
0.945	0.00241
0.946	0.00239
0.947	0.00238
0.948	0.00236
0.949	0.00235
0.95	0.00233
0.951	0.00232
0.952	0.0023
0.953	0.00229
0.954	0.00227
0.955	0.00226
0.956	0.00224
0.957	0.00223
0.958	0.00222
0.959	0.0022
0.96	0.00219
0.961	0.00217
0.962	0.00216
0.963	0.00215
0.964	0.00213
0.965	0.00212
0.966	0.00211
0.967	0.00209
0.968	0.00208
0.969	0.00207
0.97	0.00206
0.971	0.00204
0.972	0.00203
0.973	0.00202
0.974	0.002
0.975	0.00199
0.976	0.00198
0.977	0.00197
0.978	0.00196
0.979	0.00194
0.98	0.00193
0.981	0.00192
0.982	0.00191
0.983	0.0019
0.984	0.00189
0.985	0.00187
0.986	0.00186
0.987	0.00185
0.988	0.00184
0.989	0.00183
0.99	0.00182
0.991	0.00181
0.992	0.00179
0.993	0.00178
0.994	0.00177
0.995	0.00176
0.996	0.00175
0.997	0.00174
0.998	0.00173
0.999	0.00172
1	0.00171
1.001	0.0017
1.002	0.00169
1.003	0.00168
1.004	0.00167
1.005	0.00166
1.006	0.00165
1.007	0.00164
1.008	0.00163
1.009	0.00162
1.01	0.00161
1.011	0.0016
1.012	0.00159
1.013	0.00158
1.014	0.00157
1.015	0.00156
1.016	0.00155
1.017	0.00154
1.018	0.00154
1.019	0.00153
1.02	0.00152
1.021	0.00151
1.022	0.0015
1.023	0.00149
1.024	0.00148
1.025	0.00147
1.026	0.00147
1.027	0.00146
1.028	0.00145
1.029	0.00144
1.03	0.00143
1.031	0.00142
1.032	0.00141
1.033	0.00141
1.034	0.0014
1.035	0.00139
1.036	0.00138
1.037	0.00137
1.038	0.00137
1.039	0.00136
1.04	0.00135
1.041	0.00134
1.042	0.00133
1.043	0.00133
1.044	0.00132
1.045	0.00131
1.046	0.0013
1.047	0.0013
1.048	0.00129
1.049	0.00128
1.05	0.00127
1.051	0.00127
1.052	0.00126
1.053	0.00125
1.054	0.00124
1.055	0.00124
1.056	0.00123
1.057	0.00122
1.058	0.00122
1.059	0.00121
1.06	0.0012
1.061	0.0012
1.062	0.00119
1.063	0.00118
1.064	0.00117
1.065	0.00117
1.066	0.00116
1.067	0.00115
1.068	0.00115
1.069	0.00114
1.07	0.00113
1.071	0.00113
1.072	0.00112
1.073	0.00111
1.074	0.00111
1.075	0.0011
1.076	0.0011
1.077	0.00109
1.078	0.00108
1.079	0.00108
1.08	0.00107
1.081	0.00107
1.082	0.00106
1.083	0.00105
1.084	0.00105
1.085	0.00104
1.086	0.00103
1.087	0.00103
1.088	0.00102
1.089	0.00102
1.09	0.00101
1.091	0.00101
1.092	0.001
1.093	9.943E-4
1.094	9.886E-4
1.095	9.83E-4
1.096	9.774E-4
1.097	9.718E-4
1.098	9.662E-4
1.099	9.607E-4
1.1	9.553E-4
1.101	9.498E-4
1.102	9.444E-4
1.103	9.39E-4
1.104	9.337E-4
1.105	9.283E-4
1.106	9.23E-4
1.107	9.178E-4
1.108	9.125E-4
1.109	9.073E-4
1.11	9.022E-4
1.111	8.97E-4
1.112	8.919E-4
1.113	8.868E-4
1.114	8.818E-4
1.115	8.768E-4
1.116	8.718E-4
1.117	8.668E-4
1.118	8.618E-4
1.119	8.569E-4
1.12	8.52E-4
1.121	8.472E-4
1.122	8.424E-4
1.123	8.375E-4
1.124	8.328E-4
1.125	8.28E-4
1.126	8.233E-4
1.127	8.186E-4
1.128	8.139E-4
1.129	8.093E-4
1.13	8.047E-4
1.131	8.001E-4
1.132	7.955E-4
1.133	7.91E-4
1.134	7.864E-4
1.135	7.819E-4
1.136	7.775E-4
1.137	7.73E-4
1.138	7.686E-4
1.139	7.642E-4
1.14	7.598E-4
1.141	7.555E-4
1.142	7.512E-4
1.143	7.469E-4
1.144	7.426E-4
1.145	7.383E-4
1.146	7.341E-4
1.147	7.299E-4
1.148	7.257E-4
1.149	7.216E-4
1.15	7.174E-4
1.151	7.133E-4
1.152	7.092E-4
1.153	7.051E-4
1.154	7.011E-4
1.155	6.971E-4
1.156	6.931E-4
1.157	6.891E-4
1.158	6.851E-4
1.159	6.812E-4
1.16	6.772E-4
1.161	6.733E-4
1.162	6.695E-4
1.163	6.656E-4
1.164	6.618E-4
1.165	6.58E-4
1.166	6.542E-4
1.167	6.504E-4
1.168	6.466E-4
1.169	6.429E-4
1.17	6.392E-4
1.171	6.355E-4
1.172	6.318E-4
1.173	6.282E-4
1.174	6.245E-4
1.175	6.209E-4
1.176	6.173E-4
1.177	6.137E-4
1.178	6.102E-4
1.179	6.066E-4
1.18	6.031E-4
1.181	5.996E-4
1.182	5.961E-4
1.183	5.926E-4
1.184	5.892E-4
1.185	5.857E-4
1.186	5.823E-4
1.187	5.789E-4
1.188	5.756E-4
1.189	5.722E-4
1.19	5.689E-4
1.191	5.655E-4
1.192	5.622E-4
1.193	5.589E-4
1.194	5.557E-4
1.195	5.524E-4
1.196	5.492E-4
1.197	5.459E-4
1.198	5.427E-4
1.199	5.395E-4
1.2	5.364E-4
1.201	5.332E-4
1.202	5.301E-4
1.203	5.27E-4
1.204	5.238E-4
1.205	5.208E-4
1.206	5.177E-4
1.207	5.146E-4
1.208	5.116E-4
1.209	5.086E-4
1.21	5.055E-4
1.211	5.025E-4
1.212	4.996E-4
1.213	4.966E-4
1.214	4.936E-4
1.215	4.907E-4
1.216	4.878E-4
1.217	4.849E-4
1.218	4.82E-4
1.219	4.791E-4
1.22	4.763E-4
1.221	4.734E-4
1.222	4.706E-4
1.223	4.678E-4
1.224	4.65E-4
1.225	4.622E-4
1.226	4.594E-4
1.227	4.566E-4
1.228	4.539E-4
1.229	4.512E-4
1.23	4.484E-4
1.231	4.457E-4
1.232	4.431E-4
1.233	4.404E-4
1.234	4.377E-4
1.235	4.351E-4
1.236	4.324E-4
1.237	4.298E-4
1.238	4.272E-4
1.239	4.246E-4
1.24	4.22E-4
1.241	4.195E-4
1.242	4.169E-4
1.243	4.144E-4
1.244	4.118E-4
1.245	4.093E-4
1.246	4.068E-4
1.247	4.043E-4
1.248	4.018E-4
1.249	3.994E-4
1.25	3.969E-4
1.251	3.945E-4
1.252	3.92E-4
1.253	3.896E-4
1.254	3.872E-4
1.255	3.848E-4
1.256	3.824E-4
1.257	3.801E-4
1.258	3.777E-4
1.259	3.754E-4
1.26	3.73E-4
1.261	3.707E-4
1.262	3.684E-4
1.263	3.661E-4
1.264	3.638E-4
1.265	3.616E-4
1.266	3.593E-4
1.267	3.571E-4
1.268	3.548E-4
1.269	3.526E-4
1.27	3.504E-4
1.271	3.482E-4
1.272	3.46E-4
1.273	3.438E-4
1.274	3.416E-4
1.275	3.395E-4
1.276	3.373E-4
1.277	3.352E-4
1.278	3.33E-4
1.279	3.309E-4
1.28	3.288E-4
1.281	3.267E-4
1.282	3.246E-4
1.283	3.225E-4
1.284	3.205E-4
1.285	3.184E-4
1.286	3.164E-4
1.287	3.144E-4
1.288	3.123E-4
1.289	3.103E-4
1.29	3.083E-4
1.291	3.063E-4
1.292	3.043E-4
1.293	3.024E-4
1.294	3.004E-4
1.295	2.984E-4
1.296	2.965E-4
1.297	2.946E-4
1.298	2.926E-4
1.299	2.907E-4
1.3	2.888E-4
1.301	2.869E-4
1.302	2.851E-4
1.303	2.832E-4
1.304	2.813E-4
1.305	2.795E-4
1.306	2.776E-4
1.307	2.758E-4
1.308	2.739E-4
1.309	2.721E-4
1.31	2.703E-4
1.311	2.685E-4
1.312	2.667E-4
1.313	2.649E-4
1.314	2.632E-4
1.315	2.614E-4
1.316	2.596E-4
1.317	2.579E-4
1.318	2.562E-4
1.319	2.544E-4
1.32	2.527E-4
1.321	2.51E-4
1.322	2.493E-4
1.323	2.476E-4
1.324	2.459E-4
1.325	2.443E-4
1.326	2.426E-4
1.327	2.409E-4
1.328	2.393E-4
1.329	2.376E-4
1.33	2.36E-4
1.331	2.344E-4
1.332	2.328E-4
1.333	2.311E-4
1.334	2.295E-4
1.335	2.28E-4
1.336	2.264E-4
1.337	2.248E-4
1.338	2.232E-4
1.339	2.217E-4
1.34	2.201E-4
1.341	2.186E-4
1.342	2.17E-4
1.343	2.155E-4
1.344	2.14E-4
1.345	2.125E-4
1.346	2.11E-4
1.347	2.095E-4
1.348	2.08E-4
1.349	2.065E-4
1.35	2.05E-4
1.351	2.036E-4
1.352	2.021E-4
1.353	2.007E-4
1.354	1.992E-4
1.355	1.978E-4
1.356	1.964E-4
1.357	1.949E-4
1.358	1.935E-4
1.359	1.921E-4
1.36	1.907E-4
1.361	1.893E-4
1.362	1.879E-4
1.363	1.866E-4
1.364	1.852E-4
1.365	1.838E-4
1.366	1.825E-4
1.367	1.811E-4
1.368	1.798E-4
1.369	1.785E-4
1.37	1.771E-4
1.371	1.758E-4
1.372	1.745E-4
1.373	1.732E-4
1.374	1.719E-4
1.375	1.706E-4
1.376	1.693E-4
1.377	1.68E-4
1.378	1.668E-4
1.379	1.655E-4
1.38	1.642E-4
1.381	1.63E-4
1.382	1.617E-4
1.383	1.605E-4
1.384	1.593E-4
1.385	1.58E-4
1.386	1.568E-4
1.387	1.556E-4
1.388	1.544E-4
1.389	1.532E-4
1.39	1.52E-4
1.391	1.508E-4
1.392	1.497E-4
1.393	1.485E-4
1.394	1.473E-4
1.395	1.462E-4
1.396	1.45E-4
1.397	1.439E-4
1.398	1.427E-4
1.399	1.416E-4
1.4	1.404E-4
1.401	1.393E-4
1.402	1.382E-4
1.403	1.371E-4
1.404	1.36E-4
1.405	1.349E-4
1.406	1.338E-4
1.407	1.327E-4
1.408	1.316E-4
1.409	1.306E-4
1.41	1.295E-4
1.411	1.284E-4
1.412	1.274E-4
1.413	1.263E-4
1.414	1.253E-4
1.415	1.242E-4
1.416	1.232E-4
1.417	1.222E-4
1.418	1.211E-4
1.419	1.201E-4
1.42	1.191E-4
1.421	1.181E-4
1.422	1.171E-4
1.423	1.161E-4
1.424	1.151E-4
1.425	1.142E-4
1.426	1.132E-4
1.427	1.122E-4
1.428	1.112E-4
1.429	1.103E-4
1.43	1.093E-4
1.431	1.084E-4
1.432	1.074E-4
1.433	1.065E-4
1.434	1.056E-4
1.435	1.046E-4
1.436	1.037E-4
1.437	1.028E-4
1.438	1.019E-4
1.439	1.01E-4
1.44	1.001E-4
1.441	9.918E-5
1.442	9.829E-5
1.443	9.74E-5
1.444	9.652E-5
1.445	9.565E-5
1.446	9.478E-5
1.447	9.391E-5
1.448	9.305E-5
1.449	9.22E-5
1.45	9.135E-5
1.451	9.05E-5
1.452	8.966E-5
1.453	8.883E-5
1.454	8.8E-5
1.455	8.718E-5
1.456	8.636E-5
1.457	8.554E-5
1.458	8.473E-5
1.459	8.393E-5
1.46	8.313E-5
1.461	8.233E-5
1.462	8.154E-5
1.463	8.076E-5
1.464	7.998E-5
1.465	7.92E-5
1.466	7.843E-5
1.467	7.766E-5
1.468	7.69E-5
1.469	7.615E-5
1.47	7.539E-5
1.471	7.465E-5
1.472	7.391E-5
1.473	7.317E-5
1.474	7.243E-5
1.475	7.171E-5
1.476	7.098E-5
1.477	7.026E-5
1.478	6.955E-5
1.479	6.884E-5
1.48	6.813E-5
1.481	6.743E-5
1.482	6.673E-5
1.483	6.604E-5
1.484	6.535E-5
1.485	6.467E-5
1.486	6.399E-5
1.487	6.332E-5
1.488	6.265E-5
1.489	6.198E-5
1.49	6.132E-5
1.491	6.066E-5
1.492	6.001E-5
1.493	5.936E-5
1.494	5.872E-5
1.495	5.808E-5
1.496	5.744E-5
1.497	5.681E-5
1.498	5.619E-5
1.499	5.556E-5
1.5	5.495E-5
1.501	5.433E-5
1.502	5.372E-5
1.503	5.312E-5
1.504	5.251E-5
1.505	5.192E-5
1.506	5.132E-5
1.507	5.073E-5
1.508	5.015E-5
1.509	4.957E-5
1.51	4.899E-5
1.511	4.842E-5
1.512	4.785E-5
1.513	4.728E-5
1.514	4.672E-5
1.515	4.617E-5
1.516	4.561E-5
1.517	4.507E-5
1.518	4.452E-5
1.519	4.398E-5
1.52	4.344E-5
1.521	4.291E-5
1.522	4.238E-5
1.523	4.186E-5
1.524	4.134E-5
1.525	4.082E-5
1.526	4.03E-5
1.527	3.979E-5
1.528	3.929E-5
1.529	3.879E-5
1.53	3.829E-5
1.531	3.779E-5
1.532	3.73E-5
1.533	3.682E-5
1.534	3.633E-5
1.535	3.585E-5
1.536	3.538E-5
1.537	3.491E-5
1.538	3.444E-5
1.539	3.397E-5
1.54	3.351E-5
1.541	3.306E-5
1.542	3.26E-5
1.543	3.215E-5
1.544	3.171E-5
1.545	3.126E-5
1.546	3.083E-5
1.547	3.039E-5
1.548	2.996E-5
1.549	2.953E-5
1.55	2.911E-5
1.551	2.868E-5
1.552	2.827E-5
1.553	2.785E-5
1.554	2.744E-5
1.555	2.703E-5
1.556	2.663E-5
1.557	2.623E-5
1.558	2.583E-5
1.559	2.544E-5
1.56	2.505E-5
1.561	2.467E-5
1.562	2.428E-5
1.563	2.39E-5
1.564	2.353E-5
1.565	2.315E-5
1.566	2.279E-5
1.567	2.242E-5
1.568	2.206E-5
1.569	2.17E-5
1.57	2.134E-5
1.571	2.099E-5
1.572	2.064E-5
1.573	2.029E-5
1.574	1.995E-5
1.575	1.961E-5
1.576	1.928E-5
1.577	1.894E-5
1.578	1.861E-5
1.579	1.829E-5
1.58	1.796E-5
1.581	1.764E-5
1.582	1.733E-5
1.583	1.701E-5
1.584	1.67E-5
1.585	1.64E-5
1.586	1.609E-5
1.587	1.579E-5
1.588	1.549E-5
1.589	1.52E-5
1.59	1.491E-5
1.591	1.462E-5
1.592	1.434E-5
1.593	1.405E-5
1.594	1.378E-5
1.595	1.35E-5
1.596	1.323E-5
1.597	1.296E-5
1.598	1.269E-5
1.599	1.243E-5
1.6	1.217E-5
1.601	1.191E-5
1.602	1.165E-5
1.603	1.14E-5
1.604	1.115E-5
1.605	1.091E-5
1.606	1.067E-5
1.607	1.043E-5
1.608	1.019E-5
1.609	9.957E-6
1.61	9.726E-6
1.611	9.498E-6
1.612	9.274E-6
1.613	9.052E-6
1.614	8.833E-6
1.615	8.617E-6
1.616	8.404E-6
1.617	8.193E-6
1.618	7.986E-6
1.619	7.781E-6
1.62	7.58E-6
1.621	7.381E-6
1.622	7.185E-6
1.623	6.992E-6
1.624	6.801E-6
1.625	6.614E-6
1.626	6.429E-6
1.627	6.247E-6
1.628	6.068E-6
1.629	5.891E-6
1.63	5.718E-6
1.631	5.547E-6
1.632	5.379E-6
1.633	5.214E-6
1.634	5.051E-6
1.635	4.891E-6
1.636	4.734E-6
1.637	4.58E-6
1.638	4.428E-6
1.639	4.279E-6
1.64	4.133E-6
1.641	3.989E-6
1.642	3.848E-6
1.643	3.71E-6
1.644	3.574E-6
1.645	3.441E-6
1.646	3.311E-6
1.647	3.183E-6
1.648	3.058E-6
1.649	2.936E-6
1.65	2.816E-6
1.651	2.699E-6
1.652	2.584E-6
1.653	2.472E-6
1.654	2.363E-6
1.655	2.256E-6
1.656	2.152E-6
1.657	2.05E-6
1.658	1.951E-6
1.659	1.854E-6
1.66	1.76E-6
1.661	1.669E-6
1.662	1.58E-6
1.663	1.493E-6
1.664	1.409E-6
1.665	1.328E-6
1.666	1.249E-6
1.667	1.172E-6
1.668	1.098E-6
1.669	1.027E-6
1.67	9.578E-7
1.671	8.912E-7
1.672	8.271E-7
1.673	7.655E-7
1.674	7.062E-7
1.675	6.494E-7
1.676	5.951E-7
1.677	5.432E-7
1.678	4.936E-7
1.679	4.465E-7
1.68	4.018E-7
1.681	3.595E-7
1.682	3.196E-7
1.683	2.821E-7
1.684	2.469E-7
1.685	2.141E-7
1.686	1.837E-7
1.687	1.556E-7
1.688	1.299E-7
1.689	1.065E-7
1.69	8.544E-8
1.691	6.672E-8
1.692	5.033E-8
1.693	3.626E-8
1.694	2.45E-8
1.695	1.505E-8
1.696	7.892E-9
1.697	3.029E-9
1.698	4.522E-10
1.699	0
1.7	0