# Energy(eV) epsilon_r
0	7.9591
0.0129	7.9591
0.0259	7.9593
0.0388	7.9596
0.0518	7.96
0.0647	7.9606
0.0777	7.9612
0.0906	7.962
0.1036	7.9629
0.1165	7.964
0.1295	7.9651
0.1424	7.9664
0.1553	7.9678
0.1683	7.9693
0.1812	7.971
0.1942	7.9728
0.2071	7.9747
0.2201	7.9767
0.233	7.9789
0.246	7.9812
0.2589	7.9836
0.2719	7.9861
0.2848	7.9888
0.2977	7.9916
0.3107	7.9945
0.3236	7.9976
0.3366	8.0008
0.3495	8.0042
0.3625	8.0077
0.3754	8.0113
0.3884	8.0151
0.4013	8.019
0.4143	8.0231
0.4272	8.0273
0.4401	8.0316
0.4531	8.0362
0.466	8.0408
0.479	8.0457
0.4919	8.0507
0.5049	8.0558
0.5178	8.0612
0.5308	8.0667
0.5437	8.0724
0.5567	8.0782
0.5696	8.0843
0.5825	8.0905
0.5955	8.097
0.6084	8.1036
0.6214	8.1105
0.6343	8.1175
0.6473	8.1248
0.6602	8.1323
0.6732	8.14
0.6861	8.148
0.6991	8.1562
0.712	8.1645
0.7249	8.1731
0.7379	8.1818
0.7508	8.1907
0.7638	8.1996
0.7767	8.2085
0.7897	8.2172
0.8026	8.2255
0.8156	8.2333
0.8285	8.2404
0.8415	8.2464
0.8544	8.2512
0.8673	8.2546
0.8803	8.2567
0.8932	8.2576
0.9062	8.2576
0.9191	8.2574
0.9321	8.2573
0.945	8.2581
0.958	8.2603
0.9709	8.2641
0.9839	8.2697
0.9968	8.2772
1.0097	8.2865
1.0227	8.2973
1.0356	8.3093
1.0486	8.3225
1.0615	8.3365
1.0745	8.3512
1.0874	8.3666
1.1004	8.3824
1.1133	8.3986
1.1263	8.4153
1.1392	8.4322
1.1521	8.4495
1.1651	8.4669
1.178	8.4845
1.191	8.5021
1.2039	8.5194
1.2169	8.5362
1.2298	8.5521
1.2428	8.5666
1.2557	8.5791
1.2687	8.5889
1.2816	8.5953
1.2945	8.5979
1.3075	8.5963
1.3204	8.5905
1.3334	8.5811
1.3463	8.5691
1.3593	8.556
1.3722	8.5433
1.3852	8.5327
1.3981	8.5255
1.4111	8.5227
1.424	8.5245
1.437	8.5311
1.4499	8.542
1.4628	8.5567
1.4758	8.5744
1.4887	8.5946
1.5017	8.6166
1.5146	8.6399
1.5276	8.6641
1.5405	8.689
1.5535	8.7141
1.5664	8.7394
1.5794	8.7644
1.5923	8.7889
1.6052	8.8126
1.6182	8.8352
1.6311	8.8562
1.6441	8.8753
1.657	8.8922
1.67	8.9068
1.6829	8.9191
1.6959	8.9293
1.7088	8.9381
1.7218	8.9461
1.7347	8.954
1.7476	8.9627
1.7606	8.9729
1.7735	8.985
1.7865	8.9992
1.7994	9.0154
1.8124	9.0335
1.8253	9.0531
1.8383	9.0737
1.8512	9.0952
1.8642	9.1172
1.8771	9.1397
1.89	9.1626
1.903	9.186
1.9159	9.21
1.9289	9.2347
1.9418	9.2601
1.9548	9.2861
1.9677	9.3125
1.9807	9.3391
1.9936	9.3658
2.0066	9.3922
2.0195	9.4183
2.0324	9.4443
2.0454	9.4703
2.0583	9.4968
2.0713	9.524
2.0842	9.5524
2.0972	9.5822
2.1101	9.6135
2.1231	9.6463
2.136	9.6804
2.149	9.7156
2.1619	9.7518
2.1748	9.7889
2.1878	9.8269
2.2007	9.8659
2.2137	9.9059
2.2266	9.9472
2.2396	9.99
2.2525	10.0344
2.2655	10.0805
2.2784	10.1282
2.2914	10.1776
2.3043	10.2283
2.3172	10.28
2.3302	10.3321
2.3431	10.3838
2.3561	10.4344
2.369	10.4828
2.382	10.5276
2.3949	10.5678
2.4079	10.6019
2.4208	10.6289
2.4338	10.648
2.4467	10.6589
2.4596	10.6619
2.4726	10.6578
2.4855	10.6481
2.4985	10.6349
2.5114	10.6205
2.5244	10.6075
2.5373	10.5984
2.5503	10.5957
2.5632	10.601
2.5762	10.6158
2.5891	10.6406
2.602	10.6755
2.615	10.7199
2.6279	10.7726
2.6409	10.8323
2.6538	10.8977
2.6668	10.9672
2.6797	11.0397
2.6927	11.1142
2.7056	11.1899
2.7186	11.2665
2.7315	11.3436
2.7444	11.4212
2.7574	11.4993
2.7703	11.578
2.7833	11.6573
2.7962	11.7369
2.8092	11.8167
2.8221	11.896
2.8351	11.9739
2.848	12.0496
2.861	12.1219
2.8739	12.1898
2.8868	12.2524
2.8998	12.3094
2.9127	12.361
2.9257	12.4084
2.9386	12.4533
2.9516	12.4985
2.9645	12.5468
2.9775	12.6013
2.9904	12.6645
3.0034	12.7377
3.0163	12.8214
3.0292	12.9146
3.0422	13.0149
3.0551	13.1192
3.0681	13.2239
3.081	13.325
3.094	13.4186
3.1069	13.5018
3.1199	13.5719
3.1328	13.6275
3.1458	13.668
3.1587	13.6935
3.1716	13.7049
3.1846	13.7037
3.1975	13.6917
3.2105	13.6716
3.2234	13.6469
3.2364	13.6217
3.2493	13.6009
3.2623	13.5893
3.2752	13.5914
3.2882	13.6103
3.3011	13.6476
3.314	13.7028
3.327	13.7739
3.3399	13.8575
3.3529	13.9498
3.3658	14.047
3.3788	14.146
3.3917	14.2443
3.4047	14.3404
3.4176	14.4332
3.4306	14.5218
3.4435	14.6055
3.4564	14.6837
3.4694	14.7557
3.4823	14.821
3.4953	14.8793
3.5082	14.931
3.5212	14.9768
3.5341	15.0179
3.5471	15.0558
3.56	15.0922
3.573	15.1289
3.5859	15.1669
3.5988	15.2069
3.6118	15.2483
3.6247	15.2895
3.6377	15.3279
3.6506	15.3598
3.6636	15.3817
3.6765	15.3905
3.6895	15.3844
3.7024	15.3635
3.7154	15.3299
3.7283	15.2876
3.7412	15.2416
3.7542	15.1974
3.7671	15.1596
3.7801	15.1316
3.793	15.1144
3.806	15.1069
3.8189	15.106
3.8319	15.1073
3.8448	15.1062
3.8578	15.0986
3.8707	15.0816
3.8836	15.054
3.8966	15.0161
3.9095	14.9692
3.9225	14.9151
3.9354	14.8551
3.9484	14.7903
3.9613	14.7206
3.9743	14.645
3.9872	14.5619
4.0002	14.4692
4.0131	14.3645
4.0261	14.2451
4.039	14.1083
4.0519	13.9507
4.0649	13.7688
4.0778	13.5588
4.0908	13.3177
4.1037	13.0443
4.1167	12.7398
4.1296	12.409
4.1426	12.0595
4.1555	11.701
4.1685	11.3438
4.1814	10.9967
4.1943	10.6662
4.2073	10.3561
4.2202	10.0669
4.2332	9.7971
4.2461	9.5439
4.2591	9.3042
4.272	9.0752
4.285	8.8551
4.2979	8.6429
4.3109	8.4382
4.3238	8.2408
4.3367	8.0502
4.3497	7.8659
4.3626	7.6867
4.3756	7.5119
4.3885	7.3409
4.4015	7.1739
4.4144	7.0117
4.4274	6.8553
4.4403	6.7067
4.4533	6.5682
4.4662	6.4427
4.4791	6.3333
4.4921	6.2437
4.505	6.1769
4.518	6.1353
4.5309	6.1197
4.5439	6.1296
4.5568	6.1628
4.5698	6.2156
4.5827	6.2831
4.5957	6.3598
4.6086	6.4393
4.6215	6.5152
4.6345	6.5811
4.6474	6.6309
4.6604	6.6592
4.6733	6.6618
4.6863	6.6366
4.6992	6.5833
4.7122	6.5044
4.7251	6.4039
4.7381	6.2873
4.751	6.1602
4.7639	6.0274
4.7769	5.8922
4.7898	5.7555
4.8028	5.616
4.8157	5.4707
4.8287	5.3157
4.8416	5.147
4.8546	4.962
4.8675	4.7597
4.8805	4.5412
4.8934	4.3092
4.9063	4.0674
4.9193	3.8196
4.9322	3.5694
4.9452	3.3195
4.9581	3.0722
4.9711	2.8292
4.984	2.5917
4.997	2.3608
5.0099	2.1374
5.0229	1.9219
5.0358	1.7145
5.0487	1.5153
5.0617	1.3246
5.0746	1.1431
5.0876	0.9721
5.1005	0.8135
5.1135	0.6697
5.1264	0.5431
5.1394	0.4357
5.1523	0.3491
5.1653	0.2836
5.1782	0.2384
5.1911	0.2115
5.2041	0.1998
5.217	0.1993
5.23	0.2057
5.2429	0.2144
5.2559	0.2213
5.2688	0.2229
5.2818	0.2165
5.2947	0.2002
5.3077	0.1729
5.3206	0.1336
5.3335	0.0821
5.3465	0.0179
5.3594	-0.0587
5.3724	-0.1472
5.3853	-0.2465
5.3983	-0.3552
5.4112	-0.4709
5.4242	-0.5914
5.4371	-0.7139
5.4501	-0.8358
5.463	-0.9546
5.4759	-1.0678
5.4889	-1.1733
5.5018	-1.2692
5.5148	-1.3542
5.5277	-1.4272
5.5407	-1.4882
5.5536	-1.5375
5.5666	-1.5763
5.5795	-1.606
5.5925	-1.6282
5.6054	-1.6443
5.6183	-1.6554
5.6313	-1.6618
5.6442	-1.6638
5.6572	-1.6616
5.6701	-1.6554
5.6831	-1.6463
5.696	-1.6358
5.709	-1.6263
5.7219	-1.6209
5.7349	-1.6233
5.7478	-1.6371
5.7607	-1.6653
5.7737	-1.7102
5.7866	-1.7723
5.7996	-1.8507
5.8125	-1.9427
5.8255	-2.0446
5.8384	-2.1521
5.8514	-2.2613
5.8643	-2.3688
5.8773	-2.4726
5.8902	-2.5716
5.9031	-2.6655
5.9161	-2.7542
5.929	-2.8376
5.942	-2.9149
5.9549	-2.9848
5.9679	-3.0453
5.9808	-3.0946
5.9938	-3.1312
6.0067	-3.1545
6.0197	-3.1649
6.0326	-3.164
6.0455	-3.154
6.0585	-3.1373
6.0714	-3.1163
6.0844	-3.0925
6.0973	-3.067
6.1103	-3.0398
6.1232	-3.0107
6.1362	-2.979
6.1491	-2.9442
6.1621	-2.906
6.175	-2.8643
6.1879	-2.8195
6.2009	-2.7723
6.2138	-2.7232
6.2268	-2.6732
6.2397	-2.6227
6.2527	-2.5725
6.2656	-2.5227
6.2786	-2.4736
6.2915	-2.4252
6.3045	-2.3774
6.3174	-2.3302
6.3303	-2.2833
6.3433	-2.2369
6.3562	-2.191
6.3692	-2.1461
6.3821	-2.1029
6.3951	-2.062
6.408	-2.0246
6.421	-1.9916
6.4339	-1.9642
6.4469	-1.9433
6.4598	-1.9304
6.4727	-1.9264
6.4857	-1.9323
6.4986	-1.9485
6.5116	-1.9748
6.5245	-2.0102
6.5375	-2.0526
6.5504	-2.0999
6.5634	-2.1495
6.5763	-2.1994
6.5893	-2.2485
6.6022	-2.2964
6.6151	-2.3436
6.6281	-2.391
6.641	-2.4395
6.654	-2.4895
6.6669	-2.5406
6.6799	-2.5913
6.6928	-2.6396
6.7058	-2.6829
6.7187	-2.7186
6.7317	-2.7447
6.7446	-2.7598
6.7576	-2.7637
6.7705	-2.757
6.7834	-2.7408
6.7964	-2.7171
6.8093	-2.688
6.8223	-2.6559
6.8352	-2.623
6.8482	-2.5909
6.8611	-2.5612
6.8741	-2.5342
6.887	-2.5098
6.9	-2.4871
6.9129	-2.4648
6.9258	-2.4412
6.9388	-2.4149
6.9517	-2.3851
6.9647	-2.3515
6.9776	-2.3144
6.9906	-2.275
7.0035	-2.2347
7.0165	-2.1951
7.0294	-2.1579
7.0424	-2.1246
7.0553	-2.0968
7.0682	-2.0756
7.0812	-2.0617
7.0941	-2.0556
7.1071	-2.0572
7.12	-2.066
7.133	-2.0809
7.1459	-2.1007
7.1589	-2.1246
7.1718	-2.1518
7.1848	-2.1823
7.1977	-2.2167
7.2106	-2.2558
7.2236	-2.3006
7.2365	-2.352
7.2495	-2.4102
7.2624	-2.4751
7.2754	-2.5457
7.2883	-2.6207
7.3013	-2.6982
7.3142	-2.7764
7.3272	-2.853
7.3401	-2.9265
7.353	-2.9954
7.366	-3.0589
7.3789	-3.1164
7.3919	-3.168
7.4048	-3.214
7.4178	-3.2549
7.4307	-3.2915
7.4437	-3.3242
7.4566	-3.3538
7.4696	-3.3803
7.4825	-3.4036
7.4954	-3.4231
7.5084	-3.4378
7.5213	-3.4469
7.5343	-3.4498
7.5472	-3.4465
7.5602	-3.4377
7.5731	-3.4248
7.5861	-3.4094
7.599	-3.3934
7.612	-3.3785
7.6249	-3.3658
7.6378	-3.3557
7.6508	-3.3484
7.6637	-3.343
7.6767	-3.3388
7.6896	-3.3346
7.7026	-3.3297
7.7155	-3.3234
7.7285	-3.3153
7.7414	-3.3054
7.7544	-3.294
7.7673	-3.2813
7.7802	-3.2678
7.7932	-3.2539
7.8061	-3.24
7.8191	-3.2265
7.832	-3.214
7.845	-3.2032
7.8579	-3.1948
7.8709	-3.1897
7.8838	-3.1887
7.8968	-3.1925
7.9097	-3.2016
7.9226	-3.2165
7.9356	-3.2372
7.9485	-3.2636
7.9615	-3.2952
7.9744	-3.3315
7.9874	-3.3715
8.0003	-3.4141
8.0133	-3.4578
8.0262	-3.5011
8.0392	-3.5422
8.0521	-3.5793
8.065	-3.6111
8.078	-3.6363
8.0909	-3.6541
8.1039	-3.664
8.1168	-3.666
8.1298	-3.6608
8.1427	-3.649
8.1557	-3.632
8.1686	-3.6109
8.1816	-3.5873
8.1945	-3.5623
8.2074	-3.5372
8.2204	-3.5129
8.2333	-3.49
8.2463	-3.4689
8.2592	-3.4497
8.2722	-3.4324
8.2851	-3.4167
8.2981	-3.4022
8.311	-3.3885
8.324	-3.3751
8.3369	-3.3616
8.3498	-3.3476
8.3628	-3.3326
8.3757	-3.3165
8.3887	-3.2991
8.4016	-3.2804
8.4146	-3.2605
8.4275	-3.2395
8.4405	-3.2175
8.4534	-3.1948
8.4664	-3.1715
8.4793	-3.1476
8.4922	-3.1232
8.5052	-3.0982
8.5181	-3.0724
8.5311	-3.0455
8.544	-3.0174
8.557	-2.9877
8.5699	-2.9563
8.5829	-2.9234
8.5958	-2.8891
8.6088	-2.8539
8.6217	-2.8188
8.6346	-2.7847
8.6476	-2.7526
8.6605	-2.7236
8.6735	-2.6984
8.6864	-2.6774
8.6994	-2.6605
8.7123	-2.6473
8.7253	-2.6371
8.7382	-2.6291
8.7512	-2.6224
8.7641	-2.6163
8.777	-2.61
8.79	-2.6031
8.8029	-2.5949
8.8159	-2.585
8.8288	-2.5728
8.8418	-2.5579
8.8547	-2.5402
8.8677	-2.5197
8.8806	-2.4966
8.8936	-2.4715
8.9065	-2.445
8.9194	-2.418
8.9324	-2.3911
8.9453	-2.3652
8.9583	-2.3407
8.9712	-2.3181
8.9842	-2.2978
8.9971	-2.28
9.0101	-2.2647
9.023	-2.2519
9.036	-2.2416
9.0489	-2.2335
9.0618	-2.2274
9.0748	-2.2231
9.0877	-2.2202
9.1007	-2.2184
9.1136	-2.2175
9.1266	-2.217
9.1395	-2.2168
9.1525	-2.2165
9.1654	-2.2159
9.1784	-2.2148
9.1913	-2.213
9.2042	-2.2102
9.2172	-2.2064
9.2301	-2.2014
9.2431	-2.1951
9.256	-2.1876
9.269	-2.1791
9.2819	-2.1702
9.2949	-2.1612
9.3078	-2.1531
9.3208	-2.1464
9.3337	-2.1419
9.3466	-2.14
9.3596	-2.141
9.3725	-2.1449
9.3855	-2.1514
9.3984	-2.1603
9.4114	-2.1711
9.4243	-2.1835
9.4373	-2.1971
9.4502	-2.2116
9.4632	-2.2267
9.4761	-2.2419
9.4891	-2.2568
9.502	-2.2707
9.5149	-2.2833
9.5279	-2.2938
9.5408	-2.3021
9.5538	-2.3077
9.5667	-2.3108
9.5797	-2.3114
9.5926	-2.3096
9.6056	-2.3057
9.6185	-2.2997
9.6315	-2.2918
9.6444	-2.2822
9.6573	-2.2711
9.6703	-2.2586
9.6832	-2.2453
9.6962	-2.2315
9.7091	-2.2181
9.7221	-2.2057
9.735	-2.1951
9.748	-2.1869
9.7609	-2.1815
9.7739	-2.1785
9.7868	-2.1777
9.7997	-2.1782
9.8127	-2.1792
9.8256	-2.1796
9.8386	-2.179
9.8515	-2.1768
9.8645	-2.1729
9.8774	-2.1675
9.8904	-2.1607
9.9033	-2.153
9.9163	-2.1445
9.9292	-2.1355
9.9421	-2.126
9.9551	-2.1162
9.968	-2.106
9.981	-2.0953
9.9939	-2.0843
10.0069	-2.0732
10.0198	-2.062
10.0328	-2.051
10.0457	-2.0405
10.0587	-2.0307
10.0716	-2.0217
10.0845	-2.0136
10.0975	-2.0067
10.1104	-2.0009
10.1234	-1.9965
10.1363	-1.9935
10.1493	-1.9918
10.1622	-1.9913
10.1752	-1.9918
10.1881	-1.993
10.2011	-1.9944
10.214	-1.9956
10.2269	-1.9961
10.2399	-1.9956
10.2528	-1.9939
10.2658	-1.9909
10.2787	-1.9867
10.2917	-1.9817
10.3046	-1.976
10.3176	-1.9701
10.3305	-1.9643
10.3435	-1.9591
10.3564	-1.9546
10.3693	-1.9509
10.3823	-1.948
10.3952	-1.9458
10.4082	-1.9439
10.4211	-1.9422
10.4341	-1.9403
10.447	-1.938
10.46	-1.9352
10.4729	-1.9318
10.4859	-1.9281
10.4988	-1.924
10.5117	-1.9197
10.5247	-1.9153
10.5376	-1.9109
10.5506	-1.9063
10.5635	-1.9013
10.5765	-1.8956
10.5894	-1.8891
10.6024	-1.8813
10.6153	-1.8721
10.6283	-1.8614
10.6412	-1.8492
10.6541	-1.8355
10.6671	-1.8206
10.68	-1.8047
10.693	-1.7881
10.7059	-1.7713
10.7189	-1.7546
10.7318	-1.7387
10.7448	-1.7237
10.7577	-1.7103
10.7707	-1.6984
10.7836	-1.6883
10.7965	-1.6798
10.8095	-1.6725
10.8224	-1.666
10.8354	-1.6598
10.8483	-1.6533
10.8613	-1.6463
10.8742	-1.6383
10.8872	-1.6295
10.9001	-1.62
10.9131	-1.6102
10.926	-1.6006
10.9389	-1.5915
10.9519	-1.5833
10.9648	-1.5763
10.9778	-1.5705
10.9907	-1.5659
11.0037	-1.5623
11.0166	-1.5597
11.0296	-1.5578
11.0425	-1.5564
11.0555	-1.5553
11.0684	-1.5544
11.0813	-1.5537
11.0943	-1.5529
11.1072	-1.5521
11.1202	-1.551
11.1331	-1.5495
11.1461	-1.5473
11.159	-1.5442
11.172	-1.5399
11.1849	-1.5344
11.1979	-1.5275
11.2108	-1.5192
11.2237	-1.5097
11.2367	-1.4992
11.2496	-1.4877
11.2626	-1.4754
11.2755	-1.4625
11.2885	-1.4492
11.3014	-1.4354
11.3144	-1.4212
11.3273	-1.4067
11.3403	-1.3921
11.3532	-1.3777
11.3661	-1.3636
11.3791	-1.3505
11.392	-1.3386
11.405	-1.3284
11.4179	-1.3201
11.4309	-1.314
11.4438	-1.3099
11.4568	-1.3079
11.4697	-1.3075
11.4827	-1.3086
11.4956	-1.3106
11.5085	-1.3133
11.5215	-1.3164
11.5344	-1.3197
11.5474	-1.3232
11.5603	-1.3266
11.5733	-1.3301
11.5862	-1.3336
11.5992	-1.337
11.6121	-1.3403
11.6251	-1.3433
11.638	-1.3459
11.6509	-1.3481
11.6639	-1.3496
11.6768	-1.3505
11.6898	-1.3507
11.7027	-1.35
11.7157	-1.3486
11.7286	-1.3464
11.7416	-1.3435
11.7545	-1.3399
11.7675	-1.3358
11.7804	-1.3312
11.7933	-1.3264
11.8063	-1.3215
11.8192	-1.3167
11.8322	-1.3122
11.8451	-1.3083
11.8581	-1.305
11.871	-1.3024
11.884	-1.3005
11.8969	-1.2991
11.9099	-1.2982
11.9228	-1.2973
11.9357	-1.2963
11.9487	-1.295
11.9616	-1.2931
11.9746	-1.2907
11.9875	-1.2876
12.0005	-1.284
12.0134	-1.28
12.0264	-1.2757
12.0393	-1.2713
12.0523	-1.2667
12.0652	-1.2623
12.0782	-1.2579
12.0911	-1.2537
12.104	-1.2496
12.117	-1.2457
12.1299	-1.242
12.1429	-1.2385
12.1558	-1.2353
12.1688	-1.2323
12.1817	-1.2296
12.1947	-1.2273
12.2076	-1.2253
12.2206	-1.2238
12.2335	-1.2227
12.2464	-1.2219
12.2594	-1.2213
12.2723	-1.2206
12.2853	-1.2198
12.2982	-1.2186
12.3112	-1.2167
12.3241	-1.2139
12.3371	-1.2101
12.35	-1.2054
12.363	-1.1995
12.3759	-1.1928
12.3888	-1.1851
12.4018	-1.1768
12.4147	-1.168
12.4277	-1.1587
12.4406	-1.1491
12.4536	-1.1392
12.4665	-1.1292
12.4795	-1.1191
12.4924	-1.1088
12.5054	-1.0985
12.5183	-1.0882
12.5312	-1.078
12.5442	-1.0679
12.5571	-1.058
12.5701	-1.0483
12.583	-1.039
12.596	-1.0301
12.6089	-1.0217
12.6219	-1.014
12.6348	-1.0071
12.6478	-1.0011
12.6607	-0.996
12.6736	-0.9919
12.6866	-0.9888
12.6995	-0.9867
12.7125	-0.9853
12.7254	-0.9846
12.7384	-0.9843
12.7513	-0.9844
12.7643	-0.9844
12.7772	-0.9843
12.7902	-0.9839
12.8031	-0.9828
12.816	-0.9811
12.829	-0.9787
12.8419	-0.9755
12.8549	-0.9716
12.8678	-0.9671
12.8808	-0.9622
12.8937	-0.9571
12.9067	-0.9519
12.9196	-0.9468
12.9326	-0.9418
12.9455	-0.9372
12.9584	-0.9328
12.9714	-0.9287
12.9843	-0.9249
12.9973	-0.9214
13.0102	-0.9181
13.0232	-0.915
13.0361	-0.9122
13.0491	-0.9094
13.062	-0.9067
13.075	-0.904
13.0879	-0.9012
13.1008	-0.8983
13.1138	-0.8951
13.1267	-0.8916
13.1397	-0.8878
13.1526	-0.8839
13.1656	-0.8798
13.1785	-0.8756
13.1915	-0.8716
13.2044	-0.8677
13.2174	-0.8641
13.2303	-0.8607
13.2432	-0.8575
13.2562	-0.8544
13.2691	-0.8513
13.2821	-0.848
13.295	-0.8444
13.308	-0.8404
13.3209	-0.836
13.3339	-0.8311
13.3468	-0.8259
13.3598	-0.8204
13.3727	-0.8145
13.3856	-0.8086
13.3986	-0.8025
13.4115	-0.7964
13.4245	-0.7904
13.4374	-0.7845
13.4504	-0.7787
13.4633	-0.7732
13.4763	-0.7678
13.4892	-0.7627
13.5022	-0.7577
13.5151	-0.753
13.528	-0.7483
13.541	-0.7437
13.5539	-0.7391
13.5669	-0.7344
13.5798	-0.7298
13.5928	-0.7251
13.6057	-0.7203
13.6187	-0.7157
13.6316	-0.711
13.6446	-0.7065
13.6575	-0.702
13.6704	-0.6977
13.6834	-0.6934
13.6963	-0.6893
13.7093	-0.6852
13.7222	-0.6812
13.7352	-0.6773
13.7481	-0.6734
13.7611	-0.6696
13.774	-0.6657
13.787	-0.6617
13.7999	-0.6575
13.8128	-0.6532
13.8258	-0.6487
13.8387	-0.6439
13.8517	-0.6389
13.8646	-0.6338
13.8776	-0.6285
13.8905	-0.623
13.9035	-0.6175
13.9164	-0.612
13.9294	-0.6065
13.9423	-0.6011
13.9552	-0.5957
13.9682	-0.5904
13.9811	-0.5852
13.9941	-0.5801
14.007	-0.5751
14.02	-0.5703
14.0329	-0.5655
14.0459	-0.5608
14.0588	-0.5564
14.0718	-0.5521
14.0847	-0.548
14.0976	-0.5441
14.1106	-0.5404
14.1235	-0.5369
14.1365	-0.5336
14.1494	-0.5305
14.1624	-0.5276
14.1753	-0.5247
14.1883	-0.5218
14.2012	-0.5189
14.2142	-0.5158
14.2271	-0.5127
14.24	-0.5093
14.253	-0.5059
14.2659	-0.5024
14.2789	-0.4989
14.2918	-0.4954
14.3048	-0.4921
14.3177	-0.4888
14.3307	-0.4858
14.3436	-0.4829
14.3566	-0.4802
14.3695	-0.4776
14.3824	-0.4752
14.3954	-0.473
14.4083	-0.4709
14.4213	-0.469
14.4342	-0.4673
14.4472	-0.4658
14.4601	-0.4645
14.4731	-0.4634
14.486	-0.4627
14.499	-0.4622
14.5119	-0.4619
14.5248	-0.4618
14.5378	-0.4619
14.5507	-0.4621
14.5637	-0.4622
14.5766	-0.4624
14.5896	-0.4624
14.6025	-0.4623
14.6155	-0.4621
14.6284	-0.4617
14.6414	-0.4612
14.6543	-0.4605
14.6672	-0.4597
14.6802	-0.4588
14.6931	-0.4577
14.7061	-0.4564
14.719	-0.455
14.732	-0.4533
14.7449	-0.4514
14.7579	-0.4492
14.7708	-0.4468
14.7838	-0.4442
14.7967	-0.4414
14.8097	-0.4384
14.8226	-0.4353
14.8355	-0.4321
14.8485	-0.4288
14.8614	-0.4254
14.8744	-0.4219
14.8873	-0.4184
14.9003	-0.4148
14.9132	-0.4111
14.9262	-0.4073
14.9391	-0.4035
14.9521	-0.3995
14.965	-0.3955
14.9779	-0.3915
14.9909	-0.3875
15.0038	-0.3835
15.0168	-0.3797
15.0297	-0.376
15.0427	-0.3725
15.0556	-0.3693
15.0686	-0.3663
15.0815	-0.3635
15.0945	-0.3609
15.1074	-0.3585
15.1203	-0.3562
15.1333	-0.354
15.1462	-0.3517
15.1592	-0.3493
15.1721	-0.3467
15.1851	-0.3438
15.198	-0.3407
15.211	-0.3374
15.2239	-0.3339
15.2369	-0.3302
15.2498	-0.3265
15.2627	-0.3229
15.2757	-0.3194
15.2886	-0.316
15.3016	-0.3128
15.3145	-0.3098
15.3275	-0.307
15.3404	-0.3043
15.3534	-0.3017
15.3663	-0.2993
15.3793	-0.2969
15.3922	-0.2947
15.4051	-0.2925
15.4181	-0.2903
15.431	-0.2882
15.444	-0.2861
15.4569	-0.2839
15.4699	-0.2817
15.4828	-0.2795
15.4958	-0.2772
15.5087	-0.275
15.5217	-0.2727
15.5346	-0.2706
15.5475	-0.2685
15.5605	-0.2665
15.5734	-0.2645
15.5864	-0.2625
15.5993	-0.2605
15.6123	-0.2584
15.6252	-0.2562
15.6382	-0.2539
15.6511	-0.2514
15.6641	-0.2488
15.677	-0.2461
15.6899	-0.2432
15.7029	-0.2402
15.7158	-0.2371
15.7288	-0.2339
15.7417	-0.2307
15.7547	-0.2275
15.7676	-0.2243
15.7806	-0.2211
15.7935	-0.218
15.8065	-0.2149
15.8194	-0.212
15.8323	-0.2091
15.8453	-0.2064
15.8582	-0.2039
15.8712	-0.2015
15.8841	-0.1993
15.8971	-0.1973
15.91	-0.1954
15.923	-0.1937
15.9359	-0.192
15.9489	-0.1904
15.9618	-0.1888
15.9747	-0.1871
15.9877	-0.1855
16.0006	-0.1838
16.0136	-0.1821
16.0265	-0.1804
16.0395	-0.1786
16.0524	-0.1769
16.0654	-0.1752
16.0783	-0.1735
16.0913	-0.1717
16.1042	-0.1698
16.1171	-0.1678
16.1301	-0.1655
16.143	-0.1631
16.156	-0.1605
16.1689	-0.1578
16.1819	-0.155
16.1948	-0.1521
16.2078	-0.1493
16.2207	-0.1464
16.2337	-0.1435
16.2466	-0.1406
16.2595	-0.1377
16.2725	-0.1347
16.2854	-0.1317
16.2984	-0.1286
16.3113	-0.1254
16.3243	-0.1222
16.3372	-0.1189
16.3502	-0.1158
16.3631	-0.1127
16.3761	-0.1097
16.389	-0.1068
16.4019	-0.104
16.4149	-0.1013
16.4278	-0.0988
16.4408	-0.0963
16.4537	-0.0939
16.4667	-0.0917
16.4796	-0.0895
16.4926	-0.0874
16.5055	-0.0855
16.5185	-0.0836
16.5314	-0.0818
16.5443	-0.0801
16.5573	-0.0785
16.5702	-0.077
16.5832	-0.0755
16.5961	-0.0741
16.6091	-0.0727
16.622	-0.0714
16.635	-0.0701
16.6479	-0.0689
16.6609	-0.0677
16.6738	-0.0665
16.6867	-0.0653
16.6997	-0.0641
16.7126	-0.0627
16.7256	-0.0613
16.7385	-0.0598
16.7515	-0.0582
16.7644	-0.0564
16.7774	-0.0545
16.7903	-0.0525
16.8033	-0.0503
16.8162	-0.0481
16.8291	-0.0457
16.8421	-0.0432
16.855	-0.0407
16.868	-0.0381
16.8809	-0.0356
16.8939	-0.033
16.9068	-0.0305
16.9198	-0.028
16.9327	-0.0256
16.9457	-0.0232
16.9586	-0.021
16.9715	-0.0188
16.9845	-0.0166
16.9974	-0.0145
17.0104	-0.0124
17.0233	-0.0103
17.0363	-0.0083
17.0492	-0.0064
17.0622	-0.0045
17.0751	-0.0027
17.0881	-0.001
17.101	5E-4
17.1139	0.0019
17.1269	0.0032
17.1398	0.0044
17.1528	0.0055
17.1657	0.0065
17.1787	0.0076
17.1916	0.0087
17.2046	0.0099
17.2175	0.0112
17.2305	0.0126
17.2434	0.014
17.2563	0.0155
17.2693	0.017
17.2822	0.0185
17.2952	0.02
17.3081	0.0214
17.3211	0.0227
17.334	0.024
17.347	0.0253
17.3599	0.0266
17.3729	0.0279
17.3858	0.0292
17.3987	0.0306
17.4117	0.032
17.4246	0.0334
17.4376	0.0349
17.4505	0.0364
17.4635	0.038
17.4764	0.0396
17.4894	0.0412
17.5023	0.0428
17.5153	0.0446
17.5282	0.0464
17.5412	0.0483
17.5541	0.0502
17.567	0.0522
17.58	0.0542
17.5929	0.0562
17.6059	0.0581
17.6188	0.0598
17.6318	0.0614
17.6447	0.0629
17.6577	0.0642
17.6706	0.0653
17.6836	0.0663
17.6965	0.0672
17.7094	0.0682
17.7224	0.0691
17.7353	0.0701
17.7483	0.0713
17.7612	0.0726
17.7742	0.074
17.7871	0.0756
17.8001	0.0773
17.813	0.0791
17.826	0.081
17.8389	0.0829
17.8518	0.0849
17.8648	0.0869
17.8777	0.089
17.8907	0.0911
17.9036	0.0933
17.9166	0.0955
17.9295	0.0977
17.9425	0.1001
17.9554	0.1025
17.9684	0.1049
17.9813	0.1075
17.9942	0.1101
18.0072	0.1127
18.0201	0.1154
18.0331	0.118
18.046	0.1207
18.059	0.1234
18.0719	0.126
18.0849	0.1285
18.0978	0.1309
18.1108	0.1333
18.1237	0.1355
18.1366	0.1377
18.1496	0.1398
18.1625	0.1419
18.1755	0.1439
18.1884	0.1459
18.2014	0.1479
18.2143	0.15
18.2273	0.1521
18.2402	0.1542
18.2532	0.1564
18.2661	0.1586
18.279	0.1609
18.292	0.1632
18.3049	0.1654
18.3179	0.1677
18.3308	0.1699
18.3438	0.172
18.3567	0.174
18.3697	0.176
18.3826	0.1778
18.3956	0.1796
18.4085	0.1812
18.4214	0.1829
18.4344	0.1844
18.4473	0.186
18.4603	0.1876
18.4732	0.1891
18.4862	0.1908
18.4991	0.1924
18.5121	0.1941
18.525	0.1958
18.538	0.1975
18.5509	0.1993
18.5638	0.2011
18.5768	0.2029
18.5897	0.2048
18.6027	0.2067
18.6156	0.2086
18.6286	0.2105
18.6415	0.2125
18.6545	0.2144
18.6674	0.2164
18.6804	0.2184
18.6933	0.2204
18.7062	0.2224
18.7192	0.2244
18.7321	0.2264
18.7451	0.2284
18.758	0.2304
18.771	0.2324
18.7839	0.2344
18.7969	0.2364
18.8098	0.2383
18.8228	0.2402
18.8357	0.2421
18.8486	0.2438
18.8616	0.2456
18.8745	0.2472
18.8875	0.2487
18.9004	0.2502
18.9134	0.2517
18.9263	0.253
18.9393	0.2543
18.9522	0.2555
18.9652	0.2567
18.9781	0.2579
18.991	0.2591
19.004	0.2602
19.0169	0.2614
19.0299	0.2626
19.0428	0.2638
19.0558	0.265
19.0687	0.2663
19.0817	0.2676
19.0946	0.2689
19.1076	0.2703
19.1205	0.2717
19.1334	0.2731
19.1464	0.2745
19.1593	0.2759
19.1723	0.2773
19.1852	0.2786
19.1982	0.2799
19.2111	0.2812
19.2241	0.2825
19.237	0.2837
19.25	0.2848
19.2629	0.286
19.2758	0.287
19.2888	0.2881
19.3017	0.2891
19.3147	0.2901
19.3276	0.291
19.3406	0.2919
19.3535	0.2929
19.3665	0.2938
19.3794	0.2947
19.3924	0.2956
19.4053	0.2966
19.4182	0.2977
19.4312	0.2988
19.4441	0.2999
19.4571	0.3012
19.47	0.3025
19.483	0.3038
19.4959	0.3052
19.5089	0.3067
19.5218	0.3081
19.5348	0.3096
19.5477	0.3111
19.5606	0.3126
19.5736	0.3141
19.5865	0.3156
19.5995	0.3171
19.6124	0.3186
19.6254	0.32
19.6383	0.3214
19.6513	0.3228
19.6642	0.324
19.6772	0.3252
19.6901	0.3264
19.703	0.3274
19.716	0.3284
19.7289	0.3294
19.7419	0.3303
19.7548	0.3312
19.7678	0.3322
19.7807	0.3331
19.7937	0.3341
19.8066	0.3352
19.8196	0.3363
19.8325	0.3375
19.8454	0.3387
19.8584	0.3399
19.8713	0.3412
19.8843	0.3425
19.8972	0.3437
19.9102	0.3449
19.9231	0.3461
19.9361	0.3472
19.949	0.3483
19.962	0.3493
19.9749	0.3502
19.9878	0.3512
20.0008	0.3521
20.0137	0.3531
20.0267	0.354
20.0396	0.3549
20.0526	0.3558
20.0655	0.3567
20.0785	0.3575
20.0914	0.3583
20.1044	0.3591
20.1173	0.3599
20.1303	0.3606
20.1432	0.3613
20.1561	0.362
20.1691	0.3627
20.182	0.3633
20.195	0.364
20.2079	0.3646
20.2209	0.3653
20.2338	0.3659
20.2468	0.3665
20.2597	0.3671
20.2727	0.3676
20.2856	0.3681
20.2985	0.3686
20.3115	0.3691
20.3244	0.3696
20.3374	0.3701
20.3503	0.3707
20.3633	0.3712
20.3762	0.3719
20.3892	0.3725
20.4021	0.3732
20.4151	0.374
20.428	0.3748
20.4409	0.3757
20.4539	0.3766
20.4668	0.3775
20.4798	0.3785
20.4927	0.3795
20.5057	0.3805
20.5186	0.3816
20.5316	0.3827
20.5445	0.3837
20.5575	0.3847
20.5704	0.3857
20.5833	0.3867
20.5963	0.3876
20.6092	0.3884
20.6222	0.3893
20.6351	0.3901
20.6481	0.3909
20.661	0.3917
20.674	0.3925
20.6869	0.3934
20.6999	0.3943
20.7128	0.3952
20.7257	0.3961
20.7387	0.3971
20.7516	0.3982
20.7646	0.3993
20.7775	0.4005
20.7905	0.4017
20.8034	0.403
20.8164	0.4043
20.8293	0.4057
20.8423	0.407
20.8552	0.4084
20.8681	0.4098
20.8811	0.4112
20.894	0.4126
20.907	0.414
20.9199	0.4154
20.9329	0.4168
20.9458	0.4183
20.9588	0.4198
20.9717	0.4213
20.9847	0.4228
20.9976	0.4243
21.0105	0.4259
21.0235	0.4274
21.0364	0.4289
21.0494	0.4304
21.0623	0.4319
21.0753	0.4333
21.0882	0.4347
21.1012	0.4361
21.1141	0.4374
21.1271	0.4387
21.14	0.44
21.1529	0.4413
21.1659	0.4426
21.1788	0.444
21.1918	0.4453
21.2047	0.4468
21.2177	0.4483
21.2306	0.4498
21.2436	0.4514
21.2565	0.453
21.2695	0.4546
21.2824	0.4562
21.2953	0.4578
21.3083	0.4594
21.3212	0.461
21.3342	0.4625
21.3471	0.464
21.3601	0.4655
21.373	0.4669
21.386	0.4682
21.3989	0.4695
21.4119	0.4708
21.4248	0.472
21.4377	0.4732
21.4507	0.4744
21.4636	0.4756
21.4766	0.4768
21.4895	0.4781
21.5025	0.4794
21.5154	0.4807
21.5284	0.482
21.5413	0.4833
21.5543	0.4845
21.5672	0.4857
21.5801	0.4869
21.5931	0.4879
21.606	0.4888
21.619	0.4897
21.6319	0.4904
21.6449	0.491
21.6578	0.4916
21.6708	0.492
21.6837	0.4923
21.6967	0.4926
21.7096	0.4929
21.7225	0.4932
21.7355	0.4935
21.7484	0.4939
21.7614	0.4944
21.7743	0.4949
21.7873	0.4956
21.8002	0.4964
21.8132	0.4973
21.8261	0.4982
21.8391	0.4991
21.852	0.5
21.8649	0.5008
21.8779	0.5015
21.8908	0.502
21.9038	0.5024
21.9167	0.5027
21.9297	0.5028
21.9426	0.5027
21.9556	0.5026
21.9685	0.5023
21.9815	0.5019
21.9944	0.5014
22.0073	0.501
22.0203	0.5005
22.0332	0.5
22.0462	0.4995
22.0591	0.4991
22.0721	0.4987
22.085	0.4982
22.098	0.4978
22.1109	0.4975
22.1239	0.4971
22.1368	0.4966
22.1497	0.4962
22.1627	0.4958
22.1756	0.4954
22.1886	0.4951
22.2015	0.4947
22.2145	0.4945
22.2274	0.4944
22.2404	0.4944
22.2533	0.4946
22.2663	0.4948
22.2792	0.4953
22.2921	0.4958
22.3051	0.4964
22.318	0.497
22.331	0.4976
22.3439	0.4981
22.3569	0.4986
22.3698	0.4989
22.3828	0.4992
22.3957	0.4993
22.4087	0.4992
22.4216	0.4991
22.4345	0.4988
22.4475	0.4985
22.4604	0.4981
22.4734	0.4977
22.4863	0.4973
22.4993	0.4968
22.5122	0.4964
22.5252	0.496
22.5381	0.4957
22.5511	0.4954
22.564	0.4951
22.5769	0.4949
22.5899	0.4948
22.6028	0.4947
22.6158	0.4947
22.6287	0.4947
22.6417	0.4947
22.6546	0.4948
22.6676	0.4948
22.6805	0.4947
22.6935	0.4945
22.7064	0.4942
22.7193	0.4939
22.7323	0.4935
22.7452	0.493
22.7582	0.4924
22.7711	0.4919
22.7841	0.4913
22.797	0.4908
22.81	0.4902
22.8229	0.4897
22.8359	0.4893
22.8488	0.4889
22.8618	0.4885
22.8747	0.4883
22.8876	0.488
22.9006	0.4879
22.9135	0.4877
22.9265	0.4876
22.9394	0.4875
22.9524	0.4874
22.9653	0.4873
22.9783	0.4872
22.9912	0.487
23.0042	0.4869
23.0171	0.4867
23.03	0.4866
23.043	0.4866
23.0559	0.4866
23.0689	0.4868
23.0818	0.4871
23.0948	0.4874
23.1077	0.4879
23.1207	0.4885
23.1336	0.4891
23.1466	0.4898
23.1595	0.4906
23.1724	0.4914
23.1854	0.4922
23.1983	0.493
23.2113	0.4939
23.2242	0.4948
23.2372	0.4958
23.2501	0.4967
23.2631	0.4977
23.276	0.4987
23.289	0.4997
23.3019	0.5008
23.3148	0.5018
23.3278	0.5029
23.3407	0.504
23.3537	0.5051
23.3666	0.5063
23.3796	0.5074
23.3925	0.5084
23.4055	0.5095
23.4184	0.5104
23.4314	0.5113
23.4443	0.5121
23.4572	0.5127
23.4702	0.5134
23.4831	0.5139
23.4961	0.5144
23.509	0.5149
23.522	0.5155
23.5349	0.5161
23.5479	0.5167
23.5608	0.5175
23.5738	0.5183
23.5867	0.5193
23.5996	0.5203
23.6126	0.5214
23.6255	0.5226
23.6385	0.5239
23.6514	0.5252
23.6644	0.5265
23.6773	0.5279
23.6903	0.5292
23.7032	0.5305
23.7162	0.5318
23.7291	0.533
23.742	0.5341
23.755	0.5352
23.7679	0.5362
23.7809	0.5371
23.7938	0.5379
23.8068	0.5387
23.8197	0.5394
23.8327	0.5401
23.8456	0.5407
23.8586	0.5413
23.8715	0.5418
23.8844	0.5423
23.8974	0.5427
23.9103	0.543
23.9233	0.5433
23.9362	0.5436
23.9492	0.5438
23.9621	0.544
23.9751	0.5441
23.988	0.5443
24.001	0.5446
24.0139	0.5448
24.0268	0.5451
24.0398	0.5455
24.0527	0.546
24.0657	0.5466
24.0786	0.5473
24.0916	0.548
24.1045	0.5489
24.1175	0.5498
24.1304	0.5509
24.1434	0.5519
24.1563	0.553
24.1692	0.5541
24.1822	0.5551
24.1951	0.556
24.2081	0.5568
24.221	0.5575
24.234	0.5579
24.2469	0.5583
24.2599	0.5584
24.2728	0.5584
24.2858	0.5584
24.2987	0.5582
24.3116	0.5579
24.3246	0.5576
24.3375	0.5573
24.3505	0.5571
24.3634	0.5569
24.3764	0.5569
24.3893	0.5569
24.4023	0.5572
24.4152	0.5575
24.4282	0.558
24.4411	0.5586
24.454	0.5594
24.467	0.5601
24.4799	0.561
24.4929	0.5618
24.5058	0.5626
24.5188	0.5633
24.5317	0.564
24.5447	0.5647
24.5576	0.5653
24.5706	0.5659
24.5835	0.5664
24.5964	0.5669
24.6094	0.5674
24.6223	0.5679
24.6353	0.5684
24.6482	0.5688
24.6612	0.5692
24.6741	0.5696
24.6871	0.57
24.7	0.5703
24.713	0.5706
24.7259	0.5707
24.7388	0.5709
24.7518	0.5709
24.7647	0.5708
24.7777	0.5706
24.7906	0.5703
24.8036	0.57
24.8165	0.5695
24.8295	0.569
24.8424	0.5686
24.8554	0.5681
24.8683	0.5678
24.8812	0.5675
24.8942	0.5674
24.9071	0.5674
24.9201	0.5676
24.933	0.5679
24.946	0.5683
24.9589	0.5688
24.9719	0.5693
24.9848	0.5699
24.9978	0.5705
25.0107	0.5711
25.0236	0.5716
25.0366	0.5721
25.0495	0.5724
25.0625	0.5727
25.0754	0.5729
25.0884	0.573
25.1013	0.573
25.1143	0.573
25.1272	0.5729
25.1402	0.5728
25.1531	0.5727
25.166	0.5726
25.179	0.5724
25.1919	0.5723
25.2049	0.5722
25.2178	0.5721
25.2308	0.572
25.2437	0.572
25.2567	0.5719
25.2696	0.5719
25.2826	0.5719
25.2955	0.572
25.3084	0.572
25.3214	0.5722
25.3343	0.5723
25.3473	0.5725
25.3602	0.5728
25.3732	0.5732
25.3861	0.5736
25.3991	0.574
25.412	0.5745
25.425	0.5751
25.4379	0.5756
25.4508	0.5761
25.4638	0.5767
25.4767	0.5772
25.4897	0.5777
25.5026	0.5782
25.5156	0.5787
25.5285	0.5791
25.5415	0.5796
25.5544	0.58
25.5674	0.5803
25.5803	0.5807
25.5933	0.581
25.6062	0.5812
25.6191	0.5814
25.6321	0.5816
25.645	0.5818
25.658	0.5819
25.6709	0.5819
25.6839	0.582
25.6968	0.582
25.7098	0.5821
25.7227	0.5821
25.7357	0.5822
25.7486	0.5822
25.7615	0.5823
25.7745	0.5825
25.7874	0.5826
25.8004	0.5829
25.8133	0.5831
25.8263	0.5835
25.8392	0.5839
25.8522	0.5844
25.8651	0.585
25.8781	0.5856
25.891	0.5862
25.9039	0.5869
25.9169	0.5876
25.9298	0.5883
25.9428	0.589
25.9557	0.5896
25.9687	0.5903
25.9816	0.5909
25.9946	0.5915
26.0075	0.592
26.0205	0.5926
26.0334	0.5931
26.0463	0.5936
26.0593	0.594
26.0722	0.5945
26.0852	0.5949
26.0981	0.5953
26.1111	0.5958
26.124	0.5962
26.137	0.5966
26.1499	0.597
26.1629	0.5974
26.1758	0.5979
26.1887	0.5984
26.2017	0.5989
26.2146	0.5994
26.2276	0.6
26.2405	0.6006
26.2535	0.6013
26.2664	0.6019
26.2794	0.6026
26.2923	0.6033
26.3053	0.604
26.3182	0.6047
26.3311	0.6054
26.3441	0.606
26.357	0.6067
26.37	0.6073
26.3829	0.6079
26.3959	0.6085
26.4088	0.609
26.4218	0.6095
26.4347	0.6099
26.4477	0.6104
26.4606	0.6108
26.4735	0.6111
26.4865	0.6115
26.4994	0.6118
26.5124	0.6121
26.5253	0.6125
26.5383	0.6128
26.5512	0.6131
26.5642	0.6135
26.5771	0.6139
26.5901	0.6142
26.603	0.6146
26.6159	0.615
26.6289	0.6155
26.6418	0.6159
26.6548	0.6164
26.6677	0.6169
26.6807	0.6174
26.6936	0.618
26.7066	0.6185
26.7195	0.6191
26.7325	0.6197
26.7454	0.6203
26.7583	0.6208
26.7713	0.6213
26.7842	0.6218
26.7972	0.6222
26.8101	0.6226
26.8231	0.6229
26.836	0.6232
26.849	0.6235
26.8619	0.6237
26.8749	0.6239
26.8878	0.6241
26.9007	0.6243
26.9137	0.6245
26.9266	0.6247
26.9396	0.6249
26.9525	0.6252
26.9655	0.6255
26.9784	0.6258
26.9914	0.6262
27.0043	0.6267
27.0173	0.6271
27.0302	0.6276
27.0431	0.628
27.0561	0.6284
27.069	0.6288
27.082	0.6291
27.0949	0.6294
27.1079	0.6296
27.1208	0.6299
27.1338	0.6301
27.1467	0.6303
27.1597	0.6304
27.1726	0.6306
27.1855	0.6308
27.1985	0.6309
27.2114	0.6311
27.2244	0.6313
27.2373	0.6316
27.2503	0.6318
27.2632	0.6321
27.2762	0.6323
27.2891	0.6326
27.3021	0.6329
27.315	0.6332
27.3279	0.6335
27.3409	0.6339
27.3538	0.6342
27.3668	0.6346
27.3797	0.635
27.3927	0.6353
27.4056	0.6357
27.4186	0.6361
27.4315	0.6365
27.4445	0.6369
27.4574	0.6373
27.4703	0.6377
27.4833	0.6381
27.4962	0.6384
27.5092	0.6388
27.5221	0.6392
27.5351	0.6396
27.548	0.64
27.561	0.6404
27.5739	0.6407
27.5869	0.6411
27.5998	0.6414
27.6127	0.6416
27.6257	0.6419
27.6386	0.6421
27.6516	0.6422
27.6645	0.6424
27.6775	0.6426
27.6904	0.6427
27.7034	0.6429
27.7163	0.643
27.7293	0.6432
27.7422	0.6434
27.7551	0.6436
27.7681	0.6438
27.781	0.6441
27.794	0.6443
27.8069	0.6446
27.8199	0.6449
27.8328	0.6451
27.8458	0.6454
27.8587	0.6456
27.8717	0.6458
27.8846	0.646
27.8975	0.6462
27.9105	0.6464
27.9234	0.6465
27.9364	0.6467
27.9493	0.6469
27.9623	0.6471
27.9752	0.6473
27.9882	0.6475
28.0011	0.6477
28.0141	0.6479
28.027	0.6482
28.0399	0.6484
28.0529	0.6486
28.0658	0.6488
28.0788	0.649
28.0917	0.6493
28.1047	0.6495
28.1176	0.6498
28.1306	0.65
28.1435	0.6503
28.1565	0.6506
28.1694	0.6509
28.1824	0.6513
28.1953	0.6516
28.2082	0.6519
28.2212	0.6523
28.2341	0.6526
28.2471	0.6529
28.26	0.6533
28.273	0.6536
28.2859	0.6539
28.2989	0.6542
28.3118	0.6545
28.3248	0.6548
28.3377	0.6551
28.3506	0.6554
28.3636	0.6557
28.3765	0.656
28.3895	0.6562
28.4024	0.6565
28.4154	0.6568
28.4283	0.6571
28.4413	0.6573
28.4542	0.6576
28.4672	0.6579
28.4801	0.6582
28.493	0.6585
28.506	0.6587
28.5189	0.659
28.5319	0.6593
28.5448	0.6596
28.5578	0.6599
28.5707	0.6602
28.5837	0.6604
28.5966	0.6607
28.6096	0.661
28.6225	0.6612
28.6354	0.6614
28.6484	0.6616
28.6613	0.6618
28.6743	0.662
28.6872	0.6622
28.7002	0.6623
28.7131	0.6625
28.7261	0.6627
28.739	0.6629
28.752	0.663
28.7649	0.6632
28.7778	0.6634
28.7908	0.6635
28.8037	0.6637
28.8167	0.6639
28.8296	0.664
28.8426	0.6642
28.8555	0.6643
28.8685	0.6644
28.8814	0.6645
28.8944	0.6647
28.9073	0.6648
28.9202	0.665
28.9332	0.6651
28.9461	0.6653
28.9591	0.6655
28.972	0.6657
28.985	0.6659
28.9979	0.6661
29.0109	0.6663
29.0238	0.6664
29.0368	0.6666
29.0497	0.6668
29.0626	0.667
29.0756	0.6671
29.0885	0.6673
29.1015	0.6674
29.1144	0.6675
29.1274	0.6676
29.1403	0.6677
29.1533	0.6678
29.1662	0.6679
29.1792	0.668
29.1921	0.6681
29.205	0.6682
29.218	0.6684
29.2309	0.6685
29.2439	0.6686
29.2568	0.6687
29.2698	0.6688
29.2827	0.669
29.2957	0.6692
29.3086	0.6693
29.3216	0.6695
29.3345	0.6697
29.3474	0.67
29.3604	0.6702
29.3733	0.6704
29.3863	0.6707
29.3992	0.6709
29.4122	0.6712
29.4251	0.6714
29.4381	0.6716
29.451	0.6719
29.464	0.6721
29.4769	0.6723
29.4898	0.6725
29.5028	0.6727
29.5157	0.6729
29.5287	0.6731
29.5416	0.6733
29.5546	0.6736
29.5675	0.6738
29.5805	0.6741
29.5934	0.6743
29.6064	0.6746
29.6193	0.6749
29.6322	0.6752
29.6452	0.6755
29.6581	0.6758
29.6711	0.6761
29.684	0.6764
29.697	0.6767
29.7099	0.677
29.7229	0.6772
29.7358	0.6775
29.7488	0.6777
29.7617	0.678
29.7746	0.6782
29.7876	0.6784
29.8005	0.6786
29.8135	0.6788
29.8264	0.6791
29.8394	0.6793
29.8523	0.6796
29.8653	0.6798
29.8782	0.6801
29.8912	0.6804
29.9041	0.6807
29.917	0.681
29.93	0.6814
29.9429	0.6817
29.9559	0.682
29.9688	0.6823
29.9818	0.6826
29.9947	0.6829
30.0077	0.6832
30.0206	0.6834
30.0336	0.6837
30.0465	0.6839
30.0594	0.6841
30.0724	0.6844
30.0853	0.6846
30.0983	0.6849
30.1112	0.6851
30.1242	0.6854
30.1371	0.6857
30.1501	0.686
30.163	0.6863
30.176	0.6866
30.1889	0.687
30.2018	0.6873
30.2148	0.6877
30.2277	0.688
30.2407	0.6884
30.2536	0.6887
30.2666	0.6891
30.2795	0.6894
30.2925	0.6897
30.3054	0.69
30.3184	0.6903
30.3313	0.6907
30.3442	0.691
30.3572	0.6913
30.3701	0.6916
30.3831	0.6919
30.396	0.6922
30.409	0.6926
30.4219	0.6929
30.4349	0.6933
30.4478	0.6936
30.4608	0.6939
30.4737	0.6943
30.4866	0.6946
30.4996	0.695
30.5125	0.6953
30.5255	0.6956
30.5384	0.6959
30.5514	0.6962
30.5643	0.6965
30.5773	0.6968
30.5902	0.697
30.6032	0.6973
30.6161	0.6976
30.629	0.6978
30.642	0.6981
30.6549	0.6984
30.6679	0.6987
30.6808	0.6991
30.6938	0.6994
30.7067	0.6998
30.7197	0.7001
30.7326	0.7005
30.7456	0.7009
30.7585	0.7012
30.7714	0.7016
30.7844	0.702
30.7973	0.7023
30.8103	0.7027
30.8232	0.703
30.8362	0.7034
30.8491	0.7037
30.8621	0.7041
30.875	0.7044
30.888	0.7048
30.9009	0.7051
30.9139	0.7055
30.9268	0.7058
30.9397	0.7062
30.9527	0.7065
30.9656	0.7069
30.9786	0.7073
30.9915	0.7076
31.0045	0.708
31.0174	0.7083
31.0304	0.7087
31.0433	0.709
31.0563	0.7094
31.0692	0.7097
31.0821	0.7101
31.0951	0.7104
31.108	0.7108
31.121	0.7111
31.1339	0.7115
31.1469	0.7118
31.1598	0.7122
31.1728	0.7125
31.1857	0.7129
31.1987	0.7133
31.2116	0.7136
31.2245	0.714
31.2375	0.7144
31.2504	0.7147
31.2634	0.7151
31.2763	0.7154
31.2893	0.7158
31.3022	0.7161
31.3152	0.7164
31.3281	0.7168
31.3411	0.7171
31.354	0.7174
31.3669	0.7178
31.3799	0.7181
31.3928	0.7185
31.4058	0.7188
31.4187	0.7191
31.4317	0.7195
31.4446	0.7198
31.4576	0.7202
31.4705	0.7205
31.4835	0.7208
31.4964	0.7212
31.5093	0.7215
31.5223	0.7219
31.5352	0.7222
31.5482	0.7225
31.5611	0.7229
31.5741	0.7232
31.587	0.7236
31.6	0.7239
31.6129	0.7242
31.6259	0.7246
31.6388	0.7249
31.6517	0.7252
31.6647	0.7256
31.6776	0.7259
31.6906	0.7262
31.7035	0.7266
31.7165	0.7269
31.7294	0.7272
31.7424	0.7275
31.7553	0.7279
31.7683	0.7282
31.7812	0.7285
31.7941	0.7288
31.8071	0.7291
31.82	0.7294
31.833	0.7297
31.8459	0.7301
31.8589	0.7304
31.8718	0.7307
31.8848	0.731
31.8977	0.7313
31.9107	0.7316
31.9236	0.7319
31.9365	0.7322
31.9495	0.7325
31.9624	0.7328
31.9754	0.7331
31.9883	0.7334
32.0013	0.7337
32.0142	0.734
32.0272	0.7343
32.0401	0.7346
32.0531	0.7349
32.066	0.7352
32.0789	0.7355
32.0919	0.7358
32.1048	0.7361
32.1178	0.7364
32.1307	0.7367
32.1437	0.737
32.1566	0.7373
32.1696	0.7375
32.1825	0.7378
32.1955	0.7381
32.2084	0.7384
32.2213	0.7387
32.2343	0.739
32.2472	0.7392
32.2602	0.7395
32.2731	0.7398
32.2861	0.7401
32.299	0.7404
32.312	0.7406
32.3249	0.7409
32.3379	0.7412
32.3508	0.7415
32.3637	0.7417
32.3767	0.742
32.3896	0.7423
32.4026	0.7426
32.4155	0.7428
32.4285	0.7431
32.4414	0.7434
32.4544	0.7436
32.4673	0.7439
32.4803	0.7442
32.4932	0.7444
32.5061	0.7447
32.5191	0.745
32.532	0.7452
32.545	0.7455
32.5579	0.7458
32.5709	0.746
32.5838	0.7463
32.5968	0.7465
32.6097	0.7468
32.6227	0.7471
32.6356	0.7473
32.6485	0.7476
32.6615	0.7478
32.6744	0.7481
32.6874	0.7484
32.7003	0.7486
32.7133	0.7489
32.7262	0.7491
32.7392	0.7494
32.7521	0.7496
32.7651	0.7499
32.778	0.7501
32.7909	0.7504
32.8039	0.7506
32.8168	0.7509
32.8298	0.7511
32.8427	0.7514
32.8557	0.7516
32.8686	0.7519
32.8816	0.7521
32.8945	0.7523
32.9075	0.7526
32.9204	0.7528
32.9333	0.7531
32.9463	0.7533
32.9592	0.7536
32.9722	0.7538
32.9851	0.754
32.9981	0.7543
33.011	0.7545
33.024	0.7548
33.0369	0.755
33.0499	0.7552
33.0628	0.7555
33.0757	0.7557
33.0887	0.756
33.1016	0.7562
33.1146	0.7564
33.1275	0.7567
33.1405	0.7569
33.1534	0.7571
33.1664	0.7574
33.1793	0.7576
33.1923	0.7578
33.2052	0.7581
33.2181	0.7583
33.2311	0.7585
33.244	0.7588
33.257	0.759
33.2699	0.7592
33.2829	0.7594
33.2958	0.7597
33.3088	0.7599
33.3217	0.7601
33.3347	0.7604
33.3476	0.7606
33.3605	0.7608
33.3735	0.761
33.3864	0.7613
33.3994	0.7615
33.4123	0.7617
33.4253	0.7619
33.4382	0.7622
33.4512	0.7624
33.4641	0.7626
33.4771	0.7628
33.49	0.763
33.5029	0.7633
33.5159	0.7635
33.5288	0.7637
33.5418	0.7639
33.5547	0.7642
33.5677	0.7644
33.5806	0.7646
33.5936	0.7648
33.6065	0.765
33.6195	0.7652
33.6324	0.7655
33.6454	0.7657
33.6583	0.7659
33.6712	0.7661
33.6842	0.7663
33.6971	0.7665
33.7101	0.7668
33.723	0.767
33.736	0.7672
33.7489	0.7674
33.7619	0.7676
33.7748	0.7678
33.7878	0.768
33.8007	0.7682
33.8136	0.7685
33.8266	0.7687
33.8395	0.7689
33.8525	0.7691
33.8654	0.7693
33.8784	0.7695
33.8913	0.7697
33.9043	0.7699
33.9172	0.7701
33.9302	0.7703
33.9431	0.7706
33.956	0.7708
33.969	0.771
33.9819	0.7712
33.9949	0.7714
34.0078	0.7716
34.0208	0.7718
34.0337	0.772
34.0467	0.7722
34.0596	0.7724
34.0726	0.7726
34.0855	0.7728
34.0984	0.773
34.1114	0.7732
34.1243	0.7734
34.1373	0.7736
34.1502	0.7738
34.1632	0.774
34.1761	0.7742
34.1891	0.7744
34.202	0.7746
34.215	0.7748
34.2279	0.775
34.2408	0.7752
34.2538	0.7754
34.2667	0.7756
34.2797	0.7758
34.2926	0.776
34.3056	0.7762
34.3185	0.7764
34.3315	0.7766
34.3444	0.7768
34.3574	0.777
34.3703	0.7772
34.3832	0.7774
34.3962	0.7776
34.4091	0.7778
34.4221	0.778
34.435	0.7782
34.448	0.7784
34.4609	0.7786
34.4739	0.7788
34.4868	0.779
34.4998	0.7792
34.5127	0.7794
34.5256	0.7796
34.5386	0.7797
34.5515	0.7799
34.5645	0.7801
34.5774	0.7803
34.5904	0.7805
34.6033	0.7807
34.6163	0.7809
34.6292	0.7811
34.6422	0.7813
34.6551	0.7815
34.668	0.7816
34.681	0.7818
34.6939	0.782
34.7069	0.7822
34.7198	0.7824
34.7328	0.7826
34.7457	0.7828
34.7587	0.783
34.7716	0.7832
34.7846	0.7833
34.7975	0.7835
34.8104	0.7837
34.8234	0.7839
34.8363	0.7841
34.8493	0.7843
34.8622	0.7845
34.8752	0.7846
34.8881	0.7848
34.9011	0.785
34.914	0.7852
34.927	0.7854
34.9399	0.7856
34.9528	0.7857
34.9658	0.7859
34.9787	0.7861
34.9917	0.7863
35.0046	0.7865
35.0176	0.7866
35.0305	0.7868
35.0435	0.787
35.0564	0.7872
35.0694	0.7874
35.0823	0.7876
35.0952	0.7877
35.1082	0.7879
35.1211	0.7881
35.1341	0.7883
35.147	0.7884
35.16	0.7886
35.1729	0.7888
35.1859	0.789
35.1988	0.7892
35.2118	0.7893
35.2247	0.7895
35.2376	0.7897
35.2506	0.7899
35.2635	0.79
35.2765	0.7902
35.2894	0.7904
35.3024	0.7906
35.3153	0.7907
35.3283	0.7909
35.3412	0.7911
35.3542	0.7913
35.3671	0.7914
35.38	0.7916
35.393	0.7918
35.4059	0.792
35.4189	0.7921
35.4318	0.7923
35.4448	0.7925
35.4577	0.7927
35.4707	0.7928
35.4836	0.793
35.4966	0.7932
35.5095	0.7933
35.5224	0.7935
35.5354	0.7937
35.5483	0.7939
35.5613	0.794
35.5742	0.7942
35.5872	0.7944
35.6001	0.7945
35.6131	0.7947
35.626	0.7949
35.639	0.795
35.6519	0.7952
35.6648	0.7954
35.6778	0.7956
35.6907	0.7957
35.7037	0.7959
35.7166	0.7961
35.7296	0.7962
35.7425	0.7964
35.7555	0.7966
35.7684	0.7967
35.7814	0.7969
35.7943	0.7971
35.8072	0.7972
35.8202	0.7974
35.8331	0.7976
35.8461	0.7977
35.859	0.7979
35.872	0.798
35.8849	0.7982
35.8979	0.7984
35.9108	0.7985
35.9238	0.7987
35.9367	0.7989
35.9496	0.799
35.9626	0.7992
35.9755	0.7994
35.9885	0.7995
36.0014	0.7997
36.0144	0.7998
36.0273	0.8
36.0403	0.8002
36.0532	0.8003
36.0662	0.8005
36.0791	0.8007
36.092	0.8008
36.105	0.801
36.1179	0.8011
36.1309	0.8013
36.1438	0.8015
36.1568	0.8016
36.1697	0.8018
36.1827	0.8019
36.1956	0.8021
36.2086	0.8023
36.2215	0.8024
36.2345	0.8026
36.2474	0.8027
36.2603	0.8029
36.2733	0.803
36.2862	0.8032
36.2992	0.8034
36.3121	0.8035
36.3251	0.8037
36.338	0.8038
36.351	0.804
36.3639	0.8041
36.3769	0.8043
36.3898	0.8045
36.4027	0.8046
36.4157	0.8048
36.4286	0.8049
36.4416	0.8051
36.4545	0.8052
36.4675	0.8054
36.4804	0.8055
36.4934	0.8057
36.5063	0.8058
36.5193	0.806
36.5322	0.8062
36.5451	0.8063
36.5581	0.8065
36.571	0.8066
36.584	0.8068
36.5969	0.8069
36.6099	0.8071
36.6228	0.8072
36.6358	0.8074
36.6487	0.8075
36.6617	0.8077
36.6746	0.8078
36.6875	0.808
36.7005	0.8081
36.7134	0.8083
36.7264	0.8084
36.7393	0.8086
36.7523	0.8087
36.7652	0.8089
36.7782	0.809
36.7911	0.8092
36.8041	0.8093
36.817	0.8095
36.8299	0.8096
36.8429	0.8098
36.8558	0.8099
36.8688	0.8101
36.8817	0.8102
36.8947	0.8104
36.9076	0.8105
36.9206	0.8107
36.9335	0.8108
36.9465	0.811
36.9594	0.8111
36.9723	0.8113
36.9853	0.8114
36.9982	0.8116
37.0112	0.8117
37.0241	0.8118
37.0371	0.812
37.05	0.8121
37.063	0.8123
37.0759	0.8124
37.0889	0.8126
37.1018	0.8127
37.1147	0.8129
37.1277	0.813
37.1406	0.8132
37.1536	0.8133
37.1665	0.8134
37.1795	0.8136
37.1924	0.8137
37.2054	0.8139
37.2183	0.814
37.2313	0.8142
37.2442	0.8143
37.2571	0.8144
37.2701	0.8146
37.283	0.8147
37.296	0.8149
37.3089	0.815
37.3219	0.8152
37.3348	0.8153
37.3478	0.8154
37.3607	0.8156
37.3737	0.8157
37.3866	0.8159
37.3995	0.816
37.4125	0.8161
37.4254	0.8163
37.4384	0.8164
37.4513	0.8166
37.4643	0.8167
37.4772	0.8168
37.4902	0.817
37.5031	0.8171
37.5161	0.8173
37.529	0.8174
37.5419	0.8175
37.5549	0.8177
37.5678	0.8178
37.5808	0.818
37.5937	0.8181
37.6067	0.8182
37.6196	0.8184
37.6326	0.8185
37.6455	0.8187
37.6585	0.8188
37.6714	0.8189
37.6843	0.8191
37.6973	0.8192
37.7102	0.8193
37.7232	0.8195
37.7361	0.8196
37.7491	0.8197
37.762	0.8199
37.775	0.82
37.7879	0.8202
37.8009	0.8203
37.8138	0.8204
37.8267	0.8206
37.8397	0.8207
37.8526	0.8208
37.8656	0.821
37.8785	0.8211
37.8915	0.8212
37.9044	0.8214
37.9174	0.8215
37.9303	0.8216
37.9433	0.8218
37.9562	0.8219
37.9691	0.822
37.9821	0.8222
37.995	0.8223
38.008	0.8224
38.0209	0.8226
38.0339	0.8227
38.0468	0.8228
38.0598	0.823
38.0727	0.8231
38.0857	0.8232
38.0986	0.8234
38.1115	0.8235
38.1245	0.8236
38.1374	0.8238
38.1504	0.8239
38.1633	0.824
38.1763	0.8241
38.1892	0.8243
38.2022	0.8244
38.2151	0.8245
38.2281	0.8247
38.241	0.8248
38.2539	0.8249
38.2669	0.8251
38.2798	0.8252
38.2928	0.8253
38.3057	0.8254
38.3187	0.8256
38.3316	0.8257
38.3446	0.8258
38.3575	0.826
38.3705	0.8261
38.3834	0.8262
38.3963	0.8263
38.4093	0.8265
38.4222	0.8266
38.4352	0.8267
38.4481	0.8269
38.4611	0.827
38.474	0.8271
38.487	0.8272
38.4999	0.8274
38.5129	0.8275
38.5258	0.8276
38.5387	0.8277
38.5517	0.8279
38.5646	0.828
38.5776	0.8281
38.5905	0.8283
38.6035	0.8284
38.6164	0.8285
38.6294	0.8286
38.6423	0.8288
38.6553	0.8289
38.6682	0.829
38.6811	0.8291
38.6941	0.8293
38.707	0.8294
38.72	0.8295
38.7329	0.8296
38.7459	0.8298
38.7588	0.8299
38.7718	0.83
38.7847	0.8301
38.7977	0.8302
38.8106	0.8304
38.8235	0.8305
38.8365	0.8306