# Wavelength(Î¼m) Extinction_cofficient
0.193	1.66476
0.194	1.68803
0.195	1.71114
0.196	1.73408
0.197	1.75686
0.198	1.77948
0.199	1.80198
0.2	1.82443
0.201	1.8473
0.202	1.86386
0.203	1.88647
0.204	1.90868
0.205	1.92995
0.206	1.95078
0.207	1.97126
0.208	1.9914
0.209	2.01121
0.21	2.03068
0.211	2.0498
0.212	2.06854
0.213	2.08691
0.214	2.10487
0.215	2.12243
0.216	2.13955
0.217	2.15622
0.218	2.17243
0.219	2.18816
0.22	2.20339
0.221	2.21811
0.222	2.23231
0.223	2.24596
0.224	2.25907
0.225	2.27161
0.226	2.28357
0.227	2.29495
0.228	2.30575
0.229	2.31595
0.23	2.32556
0.231	2.33458
0.232	2.343
0.233	2.35084
0.234	2.35811
0.235	2.36481
0.236	2.37097
0.237	2.3766
0.238	2.38172
0.239	2.38636
0.24	2.39055
0.241	2.39431
0.242	2.39769
0.243	2.40073
0.244	2.40346
0.245	2.40592
0.246	2.40817
0.247	2.41026
0.248	2.41223
0.249	2.41415
0.25	2.41606
0.251	2.41803
0.252	2.4201
0.253	2.42234
0.254	2.42482
0.255	2.42758
0.256	2.43068
0.257	2.43419
0.258	2.43816
0.259	2.44264
0.26	2.44769
0.261	2.45336
0.262	2.4597
0.263	2.46675
0.264	2.47454
0.265	2.48312
0.266	2.49252
0.267	2.50275
0.268	2.51385
0.269	2.52581
0.27	2.53864
0.271	2.55235
0.272	2.5669
0.273	2.58228
0.274	2.59845
0.275	2.61536
0.276	2.63296
0.277	2.65117
0.278	2.66989
0.279	2.68902
0.28	2.70845
0.281	2.72803
0.282	2.7476
0.283	2.76699
0.284	2.786
0.285	2.80442
0.286	2.82201
0.287	2.83853
0.288	2.85371
0.289	2.86728
0.29	2.87896
0.291	2.88844
0.292	2.89546
0.293	2.89974
0.294	2.90101
0.295	2.89904
0.296	2.89365
0.297	2.88467
0.298	2.87202
0.299	2.85565
0.3	2.83559
0.301	2.81194
0.302	2.78486
0.303	2.75457
0.304	2.72138
0.305	2.6856
0.306	2.64763
0.307	2.60786
0.308	2.56672
0.309	2.52462
0.31	2.48198
0.311	2.4392
0.312	2.39664
0.313	2.35465
0.314	2.31352
0.315	2.27352
0.316	2.23488
0.317	2.19779
0.318	2.16241
0.319	2.12886
0.32	2.09724
0.321	2.06763
0.322	2.04007
0.323	2.0146
0.324	1.99123
0.325	1.96997
0.326	1.95082
0.327	1.93375
0.328	1.91876
0.329	1.90581
0.33	1.89488
0.331	1.88596
0.332	1.87899
0.333	1.87396
0.334	1.87084
0.335	1.8696
0.336	1.8702
0.337	1.87264
0.338	1.87686
0.339	1.88286
0.34	1.8906
0.341	1.90006
0.342	1.91122
0.343	1.92404
0.344	1.93851
0.345	1.9546
0.346	1.97229
0.347	1.99154
0.348	2.01233
0.349	2.03462
0.35	2.05839
0.351	2.0836
0.352	2.11022
0.353	2.13821
0.354	2.16754
0.355	2.19817
0.356	2.23006
0.357	2.26318
0.358	2.29747
0.359	2.33291
0.36	2.36946
0.361	2.40706
0.362	2.4457
0.363	2.48533
0.364	2.52591
0.365	2.56742
0.366	2.6098
0.367	2.65304
0.368	2.6971
0.369	2.74194
0.37	2.78753
0.371	2.83384
0.372	2.88082
0.373	2.92844
0.374	2.97665
0.375	3.02538
0.376	3.07456
0.377	3.12412
0.378	3.17393
0.379	3.22387
0.38	3.27375
0.381	3.32337
0.382	3.37247
0.383	3.42071
0.384	3.46772
0.385	3.51305
0.386	3.55621
0.387	3.59667
0.388	3.63389
0.389	3.66741
0.39	3.69687
0.391	3.72213
0.392	3.74327
0.393	3.76065
0.394	3.77492
0.395	3.7869
0.396	3.79752
0.397	3.80769
0.398	3.81819
0.399	3.82965
0.4	3.84242
0.401	3.85668
0.402	3.87241
0.403	3.88943
0.404	3.90748
0.405	3.92624
0.406	3.94534
0.407	3.96442
0.408	3.98311
0.409	4.00106
0.41	4.01795
0.411	4.03348
0.412	4.04738
0.413	4.05937
0.414	4.06924
0.415	4.07677
0.416	4.08177
0.417	4.08407
0.418	4.08353
0.419	4.08002
0.42	4.07344
0.421	4.0637
0.422	4.05074
0.423	4.03453
0.424	4.01505
0.425	3.99232
0.426	3.96637
0.427	3.93725
0.428	3.90504
0.429	3.86986
0.43	3.83181
0.431	3.79104
0.432	3.74771
0.433	3.702
0.434	3.65408
0.435	3.60415
0.436	3.55242
0.437	3.49909
0.438	3.44438
0.439	3.38848
0.44	3.33161
0.441	3.27397
0.442	3.21576
0.443	3.15716
0.444	3.09835
0.445	3.03949
0.446	2.98075
0.447	2.92226
0.448	2.86417
0.449	2.80658
0.45	2.74961
0.451	2.69336
0.452	2.6379
0.453	2.58331
0.454	2.52965
0.455	2.47698
0.456	2.42534
0.457	2.37476
0.458	2.32527
0.459	2.2769
0.46	2.22965
0.461	2.18354
0.462	2.13856
0.463	2.09472
0.464	2.05201
0.465	2.01042
0.466	1.96994
0.467	1.93056
0.468	1.89225
0.469	1.855
0.47	1.81879
0.471	1.7836
0.472	1.74941
0.473	1.71618
0.474	1.68391
0.475	1.65255
0.476	1.6221
0.477	1.59252
0.478	1.5638
0.479	1.5359
0.48	1.5088
0.481	1.48249
0.482	1.45693
0.483	1.4321
0.484	1.40799
0.485	1.38456
0.486	1.3618
0.487	1.33969
0.488	1.31821
0.489	1.29734
0.49	1.27705
0.491	1.25734
0.492	1.23817
0.493	1.21955
0.494	1.20144
0.495	1.18383
0.496	1.16671
0.497	1.15006
0.498	1.13387
0.499	1.11812
0.5	1.1028
0.501	1.0879
0.502	1.0734
0.503	1.0593
0.504	1.04558
0.505	1.03222
0.506	1.01923
0.507	1.00658
0.508	0.99427
0.509	0.9823
0.51	0.97064
0.511	0.95929
0.512	0.94825
0.513	0.93751
0.514	0.92705
0.515	0.91687
0.516	0.90697
0.517	0.89733
0.518	0.88796
0.519	0.87884
0.52	0.86997
0.521	0.86135
0.522	0.85296
0.523	0.84481
0.524	0.83689
0.525	0.8292
0.526	0.82172
0.527	0.81446
0.528	0.80742
0.529	0.8006
0.53	0.79397
0.531	0.78756
0.532	0.78135
0.533	0.77534
0.534	0.76953
0.535	0.76392
0.536	0.75851
0.537	0.7533
0.538	0.74828
0.539	0.74345
0.54	0.73882
0.541	0.73439
0.542	0.73015
0.543	0.72611
0.544	0.72227
0.545	0.71863
0.546	0.7152
0.547	0.71196
0.548	0.70894
0.549	0.70613
0.55	0.70354
0.551	0.70116
0.552	0.69902
0.553	0.6971
0.554	0.69542
0.555	0.69399
0.556	0.69281
0.557	0.69189
0.558	0.69124
0.559	0.69088
0.56	0.6908
0.561	0.69103
0.562	0.69159
0.563	0.69247
0.564	0.69371
0.565	0.69531
0.566	0.6973
0.567	0.6997
0.568	0.70254
0.569	0.70583
0.57	0.7096
0.571	0.71389
0.572	0.71872
0.573	0.72414
0.574	0.73018
0.575	0.73687
0.576	0.74427
0.577	0.75242
0.578	0.76138
0.579	0.7712
0.58	0.78193
0.581	0.79365
0.582	0.80641
0.583	0.8203
0.584	0.83537
0.585	0.8517
0.586	0.86937
0.587	0.88846
0.588	0.90904
0.589	0.93116
0.59	0.9549
0.591	0.98028
0.592	1.00735
0.593	1.03609
0.594	1.06648
0.595	1.09844
0.596	1.13183
0.597	1.16648
0.598	1.20212
0.599	1.23841
0.6	1.27493
0.601	1.31115
0.602	1.34647
0.603	1.38021
0.604	1.41162
0.605	1.43993
0.606	1.46435
0.607	1.48414
0.608	1.49863
0.609	1.50731
0.61	1.50979
0.611	1.50593
0.612	1.49577
0.613	1.47958
0.614	1.45783
0.615	1.43114
0.616	1.40027
0.617	1.36603
0.618	1.32925
0.619	1.29075
0.62	1.25129
0.621	1.21155
0.622	1.1721
0.623	1.13344
0.624	1.09594
0.625	1.05991
0.626	1.02556
0.627	0.99306
0.628	0.96249
0.629	0.93392
0.63	0.90738
0.631	0.88286
0.632	0.86035
0.633	0.83985
0.634	0.82133
0.635	0.80478
0.636	0.79019
0.637	0.77758
0.638	0.76696
0.639	0.75839
0.64	0.75194
0.641	0.74772
0.642	0.74587
0.643	0.7466
0.644	0.75016
0.645	0.75685
0.646	0.76709
0.647	0.78136
0.648	0.80027
0.649	0.82452
0.65	0.85495
0.651	0.89245
0.652	0.93793
0.653	0.99211
0.654	1.0552
0.655	1.1262
0.656	1.19449
0.657	1.24974
0.658	1.30702
0.659	1.35422
0.66	1.37906
0.661	1.37191
0.662	1.32936
0.663	1.25562
0.664	1.1606
0.665	1.0559
0.666	0.95129
0.667	0.85323
0.668	0.76501
0.669	0.68761
0.67	0.62068
0.671	0.56323
0.672	0.51402
0.673	0.47185
0.674	0.43561
0.675	0.40436
0.676	0.37728
0.677	0.35369
0.678	0.33304
0.679	0.31488
0.68	0.29882
0.681	0.28456
0.682	0.27182
0.683	0.2604
0.684	0.25012
0.685	0.24082
0.686	0.23238
0.687	0.22469
0.688	0.21766
0.689	0.21121
0.69	0.20528
0.691	0.1998
0.692	0.19472
0.693	0.19001
0.694	0.18563
0.695	0.18154
0.696	0.17772
0.697	0.17414
0.698	0.17077
0.699	0.1676
0.7	0.16462
0.701	0.16179
0.702	0.15912
0.703	0.15659
0.704	0.15419
0.705	0.15191
0.706	0.14973
0.707	0.14766
0.708	0.14568
0.709	0.14378
0.71	0.14197
0.711	0.14024
0.712	0.13857
0.713	0.13697
0.714	0.13544
0.715	0.13396
0.716	0.13254
0.717	0.13117
0.718	0.12984
0.719	0.12856
0.72	0.12733
0.721	0.12614
0.722	0.12498
0.723	0.12387
0.724	0.12278
0.725	0.12173
0.726	0.12072
0.727	0.11973
0.728	0.11877
0.729	0.11784
0.73	0.11693
0.731	0.11605
0.732	0.11519
0.733	0.11435
0.734	0.11354
0.735	0.11275
0.736	0.11197
0.737	0.11122
0.738	0.11048
0.739	0.10976
0.74	0.10906
0.741	0.10837
0.742	0.1077
0.743	0.10705
0.744	0.10641
0.745	0.10578
0.746	0.10517
0.747	0.10457
0.748	0.10398
0.749	0.1034
0.75	0.10284
0.751	0.10228
0.752	0.10174
0.753	0.10121
0.754	0.10069
0.755	0.10018
0.756	0.09967
0.757	0.09918
0.758	0.09869
0.759	0.09822
0.76	0.09775
0.761	0.09729
0.762	0.09684
0.763	0.0964
0.764	0.09596
0.765	0.09553
0.766	0.09511
0.767	0.09469
0.768	0.09428
0.769	0.09388
0.77	0.09348
0.771	0.09309
0.772	0.09271
0.773	0.09233
0.774	0.09196
0.775	0.09159
0.776	0.09123
0.777	0.09087
0.778	0.09052
0.779	0.09018
0.78	0.08983
0.781	0.0895
0.782	0.08916
0.783	0.08883
0.784	0.08851
0.785	0.08819
0.786	0.08787
0.787	0.08756
0.788	0.08726
0.789	0.08695
0.79	0.08665
0.791	0.08636
0.792	0.08606
0.793	0.08578
0.794	0.08549
0.795	0.08521
0.796	0.08493
0.797	0.08465
0.798	0.08438
0.799	0.08411
0.8	0.08384
0.801	0.08358
0.802	0.08332
0.803	0.08306
0.804	0.08281
0.805	0.08256
0.806	0.08231
0.807	0.08206
0.808	0.08182
0.809	0.08157
0.81	0.08134
0.811	0.0811
0.812	0.08087
0.813	0.08063
0.814	0.0804
0.815	0.08018
0.816	0.07995
0.817	0.07973
0.818	0.07951
0.819	0.07929
0.82	0.07907
0.821	0.07886
0.822	0.07864
0.823	0.07843
0.824	0.07823
0.825	0.07802
0.826	0.07781
0.827	0.07761
0.828	0.07741
0.829	0.07721
0.83	0.07701
0.831	0.07681
0.832	0.07662
0.833	0.07643
0.834	0.07623
0.835	0.07605
0.836	0.07586
0.837	0.07567
0.838	0.07549
0.839	0.0753
0.84	0.07512
0.841	0.07494
0.842	0.07476
0.843	0.07458
0.844	0.07441
0.845	0.07423
0.846	0.07406
0.847	0.07389
0.848	0.07371
0.849	0.07354
0.85	0.07338
0.851	0.07321
0.852	0.07304
0.853	0.07288
0.854	0.07271
0.855	0.07255
0.856	0.07239
0.857	0.07223
0.858	0.07207
0.859	0.07191
0.86	0.07176
0.861	0.0716
0.862	0.07145
0.863	0.07129
0.864	0.07114
0.865	0.07099
0.866	0.07084
0.867	0.07069
0.868	0.07054
0.869	0.07039
0.87	0.07025
0.871	0.0701
0.872	0.06996
0.873	0.06981
0.874	0.06967
0.875	0.06953
0.876	0.06939
0.877	0.06925
0.878	0.06911
0.879	0.06897
0.88	0.06883
0.881	0.06869
0.882	0.06856
0.883	0.06842
0.884	0.06829
0.885	0.06815
0.886	0.06802
0.887	0.06789
0.888	0.06776
0.889	0.06763
0.89	0.0675
0.891	0.06737
0.892	0.06724
0.893	0.06711
0.894	0.06699
0.895	0.06686
0.896	0.06674
0.897	0.06661
0.898	0.06649
0.899	0.06637
0.9	0.06624
0.901	0.06612
0.902	0.066
0.903	0.06588
0.904	0.06576
0.905	0.06564
0.906	0.06552
0.907	0.0654
0.908	0.06529
0.909	0.06517
0.91	0.06505
0.911	0.06494
0.912	0.06482
0.913	0.06471
0.914	0.0646
0.915	0.06448
0.916	0.06437
0.917	0.06426
0.918	0.06415
0.919	0.06403
0.92	0.06392
0.921	0.06381
0.922	0.0637
0.923	0.0636
0.924	0.06349
0.925	0.06338
0.926	0.06327
0.927	0.06317
0.928	0.06306
0.929	0.06295
0.93	0.06285
0.931	0.06274
0.932	0.06264
0.933	0.06254
0.934	0.06243
0.935	0.06233
0.936	0.06223
0.937	0.06213
0.938	0.06202
0.939	0.06192
0.94	0.06182
0.941	0.06172
0.942	0.06162
0.943	0.06153
0.944	0.06143
0.945	0.06133
0.946	0.06123
0.947	0.06113
0.948	0.06104
0.949	0.06094
0.95	0.06084
0.951	0.06075
0.952	0.06065
0.953	0.06056
0.954	0.06046
0.955	0.06037
0.956	0.06028
0.957	0.06018
0.958	0.06009
0.959	0.06
0.96	0.05991
0.961	0.05981
0.962	0.05972
0.963	0.05963
0.964	0.05954
0.965	0.05945
0.966	0.05936
0.967	0.05927
0.968	0.05918
0.969	0.05909
0.97	0.05901
0.971	0.05892
0.972	0.05883
0.973	0.05874
0.974	0.05865
0.975	0.05857
0.976	0.05848
0.977	0.0584
0.978	0.05831
0.979	0.05822
0.98	0.05814
0.981	0.05806
0.982	0.05797
0.983	0.05789
0.984	0.0578
0.985	0.05772
0.986	0.05764
0.987	0.05755
0.988	0.05747
0.989	0.05739
0.99	0.05731
0.991	0.05723
0.992	0.05715
0.993	0.05706
0.994	0.05698
0.995	0.0569
0.996	0.05682
0.997	0.05674
0.998	0.05666
0.999	0.05659
1	0.05651
1.0025	0.05631
1.005	0.05612
1.0075	0.05592
1.01	0.05573
1.0125	0.05554
1.015	0.05536
1.0175	0.05517
1.02	0.05499
1.0225	0.0548
1.025	0.05462
1.0275	0.05444
1.03	0.05426
1.0325	0.05409
1.035	0.05391
1.0375	0.05374
1.04	0.05357
1.0425	0.05339
1.045	0.05323
1.0475	0.05306
1.05	0.05289
1.0525	0.05272
1.055	0.05256
1.0575	0.05239
1.06	0.05223
1.0625	0.05207
1.065	0.05191
1.0675	0.05176
1.07	0.0516
1.0725	0.05144
1.075	0.05129
1.0775	0.05113
1.08	0.05098
1.0825	0.05083
1.085	0.05068
1.0875	0.05053
1.09	0.05038
1.0925	0.05023
1.095	0.05009
1.0975	0.04994
1.1	0.0498
1.1025	0.04965
1.105	0.04951
1.1075	0.04937
1.11	0.04923
1.1125	0.04909
1.115	0.04895
1.1175	0.04881
1.12	0.04868
1.1225	0.04854
1.125	0.04841
1.1275	0.04827
1.13	0.04814
1.1325	0.04801
1.135	0.04788
1.1375	0.04775
1.14	0.04762
1.1425	0.04749
1.145	0.04736
1.1475	0.04723
1.15	0.04711
1.1525	0.04698
1.155	0.04686
1.1575	0.04673
1.16	0.04661
1.1625	0.04649
1.165	0.04637
1.1675	0.04624
1.17	0.04612
1.1725	0.046
1.175	0.04589
1.1775	0.04577
1.18	0.04565
1.1825	0.04553
1.185	0.04542
1.1875	0.0453
1.19	0.04519
1.1925	0.04507
1.195	0.04496
1.1975	0.04485
1.2	0.04473
1.2025	0.04462
1.205	0.04451
1.2075	0.0444
1.21	0.04429
1.2125	0.04418
1.215	0.04408
1.2175	0.04397
1.22	0.04386
1.2225	0.04375
1.225	0.04365
1.2275	0.04354
1.23	0.04344
1.2325	0.04333
1.235	0.04323
1.2375	0.04313
1.24	0.04302
1.2425	0.04292
1.245	0.04282
1.2475	0.04272
1.25	0.04262
1.2525	0.04252
1.255	0.04242
1.2575	0.04232
1.26	0.04222
1.2625	0.04213
1.265	0.04203
1.2675	0.04193
1.27	0.04184
1.2725	0.04174
1.275	0.04165
1.2775	0.04155
1.28	0.04146
1.2825	0.04136
1.285	0.04127
1.2875	0.04118
1.29	0.04108
1.2925	0.04099
1.295	0.0409
1.2975	0.04081
1.3	0.04072
1.3025	0.04063
1.305	0.04054
1.3075	0.04045
1.31	0.04036
1.3125	0.04027
1.315	0.04019
1.3175	0.0401
1.32	0.04001
1.3225	0.03993
1.325	0.03984
1.3275	0.03975
1.33	0.03967
1.3325	0.03958
1.335	0.0395
1.3375	0.03941
1.34	0.03933
1.3425	0.03925
1.345	0.03916
1.3475	0.03908
1.35	0.039
1.3525	0.03892
1.355	0.03884
1.3575	0.03875
1.36	0.03867
1.3625	0.03859
1.365	0.03851
1.3675	0.03843
1.37	0.03836
1.3725	0.03828
1.375	0.0382
1.3775	0.03812
1.38	0.03804
1.3825	0.03796
1.385	0.03789
1.3875	0.03781
1.39	0.03773
1.3925	0.03766
1.395	0.03758
1.3975	0.03751
1.4	0.03743
1.4025	0.03736
1.405	0.03728
1.4075	0.03721
1.41	0.03714
1.4125	0.03706
1.415	0.03699
1.4175	0.03692
1.42	0.03685
1.4225	0.03677
1.425	0.0367
1.4275	0.03663
1.43	0.03656
1.4325	0.03649
1.435	0.03642
1.4375	0.03635
1.44	0.03628
1.4425	0.03621
1.445	0.03614
1.4475	0.03607
1.45	0.036
1.4525	0.03593
1.455	0.03586
1.4575	0.0358
1.46	0.03573
1.4625	0.03566
1.465	0.03559
1.4675	0.03553
1.47	0.03546
1.4725	0.03539
1.475	0.03533
1.4775	0.03526
1.48	0.0352
1.4825	0.03513
1.485	0.03507
1.4875	0.035
1.49	0.03494
1.4925	0.03487
1.495	0.03481
1.4975	0.03474
1.5	0.03468
1.5025	0.03462
1.505	0.03456
1.5075	0.03449
1.51	0.03443
1.5125	0.03437
1.515	0.03431
1.5175	0.03424
1.52	0.03418
1.5225	0.03412
1.525	0.03406
1.5275	0.034
1.53	0.03394
1.5325	0.03388
1.535	0.03382
1.5375	0.03376
1.54	0.0337
1.5425	0.03364
1.545	0.03358
1.5475	0.03352
1.55	0.03347
1.5525	0.03341
1.555	0.03335
1.5575	0.03329
1.56	0.03323
1.5625	0.03318
1.565	0.03312
1.5675	0.03306
1.57	0.033
1.5725	0.03295
1.575	0.03289
1.5775	0.03284
1.58	0.03278
1.5825	0.03272
1.585	0.03267
1.5875	0.03261
1.59	0.03256
1.5925	0.0325
1.595	0.03245
1.5975	0.03239
1.6	0.03234
1.6025	0.03228
1.605	0.03223
1.6075	0.03218
1.61	0.03212
1.6125	0.03207
1.615	0.03202
1.6175	0.03196
1.62	0.03191
1.6225	0.03186
1.625	0.03181
1.6275	0.03175
1.63	0.0317
1.6325	0.03165
1.635	0.0316
1.6375	0.03155
1.64	0.03149
1.6425	0.03144
1.645	0.03139
1.6475	0.03134
1.65	0.03129
1.6525	0.03124
1.655	0.03119
1.6575	0.03114
1.66	0.03109
1.6625	0.03104
1.665	0.03099
1.6675	0.03094
1.67	0.03089
1.6725	0.03084
1.675	0.03079
1.6775	0.03075
1.68	0.0307
1.6825	0.03065
1.685	0.0306
1.6875	0.03055
1.69	0.03051
