# Energy(eV) epsilon_i
0	0
0.028	0.0064
0.0561	0.0128
0.0841	0.0193
0.1121	0.0258
0.1402	0.0324
0.1682	0.039
0.1963	0.0458
0.2243	0.0527
0.2523	0.0598
0.2804	0.067
0.3084	0.0744
0.3364	0.0821
0.3645	0.09
0.3925	0.0983
0.4206	0.1069
0.4486	0.1158
0.4766	0.1253
0.5047	0.1352
0.5327	0.1458
0.5607	0.157
0.5888	0.1691
0.6168	0.1821
0.6449	0.1963
0.6729	0.2117
0.7009	0.2289
0.729	0.2481
0.757	0.2698
0.785	0.2948
0.8131	0.324
0.8411	0.3588
0.8692	0.4012
0.8972	0.4535
0.9252	0.5186
0.9533	0.5986
0.9813	0.6928
1.0093	0.7967
1.0374	0.9028
1.0654	1.0048
1.0934	1.1002
1.1215	1.189
1.1495	1.2699
1.1776	1.3412
1.2056	1.4038
1.2336	1.4644
1.2617	1.5346
1.2897	1.6268
1.3177	1.7488
1.3458	1.9014
1.3738	2.0796
1.4019	2.2759
1.4299	2.4819
1.4579	2.6896
1.486	2.8927
1.514	3.0877
1.542	3.275
1.5701	3.4582
1.5981	3.6419
1.6262	3.8287
1.6542	4.0181
1.6822	4.2077
1.7103	4.3956
1.7383	4.5818
1.7663	4.7681
1.7944	4.956
1.8224	5.146
1.8505	5.3376
1.8785	5.5303
1.9065	5.7239
1.9346	5.9175
1.9626	6.1096
1.9906	6.2983
2.0187	6.4827
2.0467	6.663
2.0747	6.8415
2.1028	7.0211
2.1308	7.203
2.1589	7.3845
2.1869	7.5575
2.2149	7.7115
2.243	7.8351
2.271	7.9186
2.299	7.955
2.3271	7.9428
2.3551	7.8863
2.3832	7.7947
2.4112	7.6813
2.4392	7.5614
2.4673	7.45
2.4953	7.3586
2.5233	7.2937
2.5514	7.2544
2.5794	7.2343
2.6075	7.2245
2.6355	7.2172
2.6635	7.208
2.6916	7.197
2.7196	7.1879
2.7476	7.186
2.7757	7.1948
2.8037	7.2153
2.8318	7.2462
2.8598	7.2853
2.8878	7.3293
2.9159	7.3747
2.9439	7.4197
2.9719	7.4654
3	7.5149
3.028	7.5712
3.056	7.6352
3.0841	7.7056
3.1121	7.7803
3.1402	7.8574
3.1682	7.9364
3.1962	8.0185
3.2243	8.1049
3.2523	8.1956
3.2803	8.2888
3.3084	8.3811
3.3364	8.4715
3.3645	8.5637
3.3925	8.6643
3.4205	8.7773
3.4486	8.9008
3.4766	9.0279
3.5046	9.1517
3.5327	9.2708
3.5607	9.3893
3.5888	9.5128
3.6168	9.643
3.6448	9.7752
3.6729	9.9029
3.7009	10.0231
3.7289	10.1374
3.757	10.2462
3.785	10.3429
3.8131	10.4144
3.8411	10.4495
3.8691	10.4473
3.8972	10.4193
3.9252	10.3842
3.9532	10.3596
3.9813	10.3563
4.0093	10.3758
4.0373	10.4114
4.0654	10.4533
4.0934	10.4948
4.1215	10.5338
4.1495	10.5716
4.1775	10.6099
4.2056	10.6507
4.2336	10.6963
4.2616	10.748
4.2897	10.8037
4.3177	10.8587
4.3458	10.9089
4.3738	10.9525
4.4018	10.9894
4.4299	11.0197
4.4579	11.0438
4.4859	11.0629
4.514	11.079
4.542	11.094
4.5701	11.1095
4.5981	11.1283
4.6261	11.1529
4.6542	11.1823
4.6822	11.2122
4.7102	11.2384
4.7383	11.2597
4.7663	11.2774
4.7944	11.2933
4.8224	11.3092
4.8504	11.3288
4.8785	11.3557
4.9065	11.3911
4.9345	11.4333
4.9626	11.4812
4.9906	11.5365
5.0186	11.6025
5.0467	11.683
5.0747	11.7813
5.1028	11.9004
5.1308	12.0418
5.1588	12.206
5.1869	12.3926
5.2149	12.5985
5.2429	12.8147
5.271	13.0267
5.299	13.2184
5.3271	13.3752
5.3551	13.4872
5.3831	13.5516
5.4112	13.574
5.4392	13.5633
5.4672	13.5268
5.4953	13.4684
5.5233	13.3932
5.5514	13.3083
5.5794	13.2176
5.6074	13.1152
5.6355	12.9882
5.6635	12.8274
5.6915	12.6354
5.7196	12.4246
5.7476	12.2087
5.7757	11.996
5.8037	11.7888
5.8317	11.5852
5.8598	11.3828
5.8878	11.1817
5.9158	10.983
5.9439	10.7865
5.9719	10.5919
5.9999	10.4002
6.028	10.2133
6.056	10.0318
6.0841	9.8557
6.1121	9.6859
6.1401	9.5246
6.1682	9.3735
6.1962	9.2331
6.2242	9.1019
6.2523	8.977
6.2803	8.8547
6.3084	8.7317
6.3364	8.6052
6.3644	8.4732
6.3925	8.3357
6.4205	8.1962
6.4485	8.0605
6.4766	7.9333
6.5046	7.8162
6.5327	7.7077
6.5607	7.6051
6.5887	7.5054
6.6168	7.4048
6.6448	7.2991
6.6728	7.1859
6.7009	7.0664
6.7289	6.9451
6.757	6.8253
6.785	6.7062
6.813	6.5826
6.8411	6.4491
6.8691	6.3033
6.8971	6.1469
6.9252	5.9847
6.9532	5.8222
6.9812	5.6634
7.0093	5.509
7.0373	5.3558
7.0654	5.1995
7.0934	5.0375
7.1214	4.8716
7.1495	4.7076
7.1775	4.5527
7.2055	4.4125
7.2336	4.2879
7.2616	4.1756
7.2897	4.0698
7.3177	3.9649
7.3457	3.8587
7.3738	3.7537
7.4018	3.6548
7.4298	3.5665
7.4579	3.4893
7.4859	3.4205
7.514	3.3555
7.542	3.29
7.57	3.2211
7.5981	3.1481
7.6261	3.0719
7.6541	2.994
7.6822	2.9164
7.7102	2.8407
7.7383	2.7679
7.7663	2.6987
7.7943	2.6335
7.8224	2.5725
7.8504	2.5155
7.8784	2.4616
7.9065	2.4092
7.9345	2.3565
7.9625	2.3024
7.9906	2.2465
8.0186	2.1886
8.0467	2.129
8.0747	2.0683
8.1027	2.0076
8.1308	1.9486
8.1588	1.8933
8.1868	1.8436
8.2149	1.8012
8.2429	1.7666
8.271	1.7394
8.299	1.7171
8.327	1.6965
8.3551	1.6751
8.3831	1.6514
8.4111	1.625
8.4392	1.5962
8.4672	1.5662
8.4953	1.5373
8.5233	1.5111
8.5513	1.4885
8.5794	1.4691
8.6074	1.4517
8.6354	1.4352
8.6635	1.4178
8.6915	1.3978
8.7196	1.3741
8.7476	1.3467
8.7756	1.3164
8.8037	1.2842
8.8317	1.2508
8.8597	1.2168
8.8878	1.1825
8.9158	1.1483
8.9438	1.1147
8.9719	1.0816
8.9999	1.0492
9.028	1.0172
9.056	0.9858
9.084	0.9547
9.1121	0.924
9.1401	0.8938
9.1681	0.8645
9.1962	0.8364
9.2242	0.8089
9.2523	0.7818
9.2803	0.7551
9.3083	0.7287
9.3364	0.7026
9.3644	0.6762
9.3924	0.6492
9.4205	0.6215
9.4485	0.594
9.4766	0.5673
9.5046	0.542
9.5326	0.5182
9.5607	0.496
9.5887	0.4751
9.6167	0.4558
9.6448	0.4382
9.6728	0.4222
9.7009	0.4071
9.7289	0.3925
9.7569	0.3781
9.785	0.3642
9.813	0.3509
9.841	0.3383
9.8691	0.3266
9.8971	0.3157
9.9251	0.3058
9.9532	0.2966
9.9812	0.2881
10.0093	0.2798
10.0373	0.2714
10.0653	0.2626
10.0934	0.2535
10.1214	0.2443
10.1494	0.2352
10.1775	0.2265
10.2055	0.2183
10.2336	0.2106
10.2616	0.2031
10.2896	0.1956
10.3177	0.1882
10.3457	0.1807
10.3737	0.1734
10.4018	0.1663
10.4298	0.1593
10.4579	0.1524
10.4859	0.1456
10.5139	0.1389
10.542	0.1324
10.57	0.1261
10.598	0.1198
10.6261	0.1137
10.6541	0.1076
10.6821	0.1018
10.7102	0.0964
10.7382	0.0915
10.7663	0.0872
10.7943	0.0833
10.8223	0.0798
10.8504	0.0768
10.8784	0.0741
10.9064	0.0717
10.9345	0.0696
10.9625	0.0677
10.9906	0.066
11.0186	0.0645
11.0466	0.0631
11.0747	0.0618
11.1027	0.0606
11.1307	0.0594
11.1588	0.0583
11.1868	0.0573
11.2149	0.0563
11.2429	0.0554
11.2709	0.0545
11.299	0.0536
11.327	0.0528
11.355	0.052
11.3831	0.0512
11.4111	0.0504
11.4392	0.0497
11.4672	0.049
11.4952	0.0483
11.5233	0.0477
11.5513	0.047
11.5793	0.0464
11.6074	0.0458
11.6354	0.0452
11.6634	0.0446
11.6915	0.0441
11.7195	0.0435
11.7476	0.043
11.7756	0.0425
11.8036	0.0419
11.8317	0.0415
11.8597	0.041
11.8877	0.0405
11.9158	0.04
11.9438	0.0396
11.9719	0.0391
11.9999	0.0387
12.0279	0.0383
12.056	0.0379
12.084	0.0375
12.112	0.0371
12.1401	0.0367
12.1681	0.0363
12.1962	0.0359
12.2242	0.0356
12.2522	0.0352
12.2803	0.0349
12.3083	0.0345
12.3363	0.0342
12.3644	0.0339
12.3924	0.0336
12.4205	0.0333
12.4485	0.033
12.4765	0.0327
12.5046	0.0324
12.5326	0.0321
12.5606	0.0318
12.5887	0.0316
12.6167	0.0313
12.6447	0.0311
12.6728	0.0308
12.7008	0.0306
12.7289	0.0304
12.7569	0.0301
12.7849	0.0299
12.813	0.0297
12.841	0.0295
12.869	0.0294
12.8971	0.0292
12.9251	0.029
12.9532	0.0289
12.9812	0.0287
13.0092	0.0286
13.0373	0.0285
13.0653	0.0284
13.0933	0.0283
13.1214	0.0282
13.1494	0.0282
13.1775	0.0282
13.2055	0.0282
13.2335	0.0283
13.2616	0.0284
13.2896	0.0286
13.3176	0.0289
13.3457	0.0293
13.3737	0.0298
13.4018	0.0304
13.4298	0.0311
13.4578	0.0321
13.4859	0.0332
13.5139	0.0344
13.5419	0.0359
13.57	0.0373
13.598	0.0388
13.626	0.0402
13.6541	0.0416
13.6821	0.043
13.7102	0.0444
13.7382	0.0459
13.7662	0.0477
13.7943	0.0496
13.8223	0.0517
13.8503	0.0539
13.8784	0.0563
13.9064	0.0589
13.9345	0.0617
13.9625	0.0648
13.9905	0.0682
14.0186	0.0717
14.0466	0.0752
14.0746	0.0785
14.1027	0.0815
14.1307	0.0843
14.1588	0.0868
14.1868	0.0889
14.2148	0.0907
14.2429	0.092
14.2709	0.093
14.2989	0.0936
14.327	0.094
14.355	0.0942
14.3831	0.0943
14.4111	0.0943
14.4391	0.0942
14.4672	0.0943
14.4952	0.0946
14.5232	0.0953
14.5513	0.0963
14.5793	0.0976
14.6073	0.0991
14.6354	0.1006
14.6634	0.1019
14.6915	0.1029
14.7195	0.1036
14.7475	0.104
14.7756	0.1042
14.8036	0.1043
14.8316	0.1045
14.8597	0.1048
14.8877	0.1052
14.9158	0.1058
14.9438	0.1063
14.9718	0.1066
14.9999	0.1068
15.0279	0.1067
15.0559	0.1064
15.084	0.1059
15.112	0.1053
15.1401	0.1045
15.1681	0.1037
15.1961	0.1029
15.2242	0.1021
15.2522	0.1013
15.2802	0.1005
15.3083	0.0994
15.3363	0.0982
15.3644	0.0969
15.3924	0.0955
15.4204	0.0943
15.4485	0.0932
15.4765	0.0923
15.5045	0.0914
15.5326	0.0906
15.5606	0.0898
15.5886	0.0889
15.6167	0.088
15.6447	0.0871
15.6728	0.0862
15.7008	0.0852
15.7288	0.0842
15.7569	0.0831
15.7849	0.0818
15.8129	0.0806
15.841	0.0795
15.869	0.0784
15.8971	0.0776
15.9251	0.0768
15.9531	0.0761
15.9812	0.0754
16.0092	0.0748
16.0372	0.0742
16.0653	0.0735
16.0933	0.0729
16.1214	0.0721
16.1494	0.0714
16.1774	0.0706
16.2055	0.0697
16.2335	0.0687
16.2615	0.0676
16.2896	0.0664
16.3176	0.0651
16.3457	0.0638
16.3737	0.0624
16.4017	0.061
16.4298	0.0595
16.4578	0.0579
16.4858	0.0563
16.5139	0.0547
16.5419	0.0531
16.5699	0.0515
16.598	0.0499
16.626	0.0484
16.6541	0.047
16.6821	0.0457
16.7101	0.0447
16.7382	0.0438
16.7662	0.0429
16.7942	0.0421
16.8223	0.0413
16.8503	0.0404
16.8784	0.0394
16.9064	0.0384
16.9344	0.0373
16.9625	0.0362
16.9905	0.035
17.0185	0.0339
17.0466	0.0328
17.0746	0.0318
17.1027	0.0308
17.1307	0.0299
17.1587	0.0291
17.1868	0.0283
17.2148	0.0275
17.2428	0.0268
17.2709	0.0261
17.2989	0.0255
17.327	0.0248
17.355	0.0241
17.383	0.0234
17.4111	0.0228
17.4391	0.0222
17.4671	0.0215
17.4952	0.0209
17.5232	0.0202
17.5512	0.0195
17.5793	0.0189
17.6073	0.0184
17.6354	0.0179
17.6634	0.0175
17.6914	0.0171
17.7195	0.0168
17.7475	0.0164
17.7755	0.0161
17.8036	0.0157
17.8316	0.0154
17.8597	0.0151
17.8877	0.0149
17.9157	0.0147
17.9438	0.0145
17.9718	0.0142
17.9998	0.014
18.0279	0.0137
18.0559	0.0134
18.084	0.0132
18.112	0.0129
18.14	0.0127
18.1681	0.0125
18.1961	0.0123
18.2241	0.0122
18.2522	0.012
18.2802	0.0119
18.3083	0.0117
18.3363	0.0116
18.3643	0.0114
18.3924	0.0112
18.4204	0.011
18.4484	0.0107
18.4765	0.0105
18.5045	0.0102
18.5325	0.01
18.5606	0.0097
18.5886	0.0095
18.6167	0.0092
18.6447	0.009
18.6727	0.0088
18.7008	0.0086
18.7288	0.0084
18.7568	0.0083
18.7849	0.0081
18.8129	0.0079
18.841	0.0078
18.869	0.0077
18.897	0.0076
18.9251	0.0075
18.9531	0.0074
18.9811	0.0073
19.0092	0.0072
19.0372	0.0072
19.0653	0.0071
19.0933	0.007
19.1213	0.007
19.1494	0.0069
19.1774	0.0069
19.2054	0.0068
19.2335	0.0068
19.2615	0.0067
19.2896	0.0067
19.3176	0.0066
19.3456	0.0066
19.3737	0.0065
19.4017	0.0065
19.4297	0.0065
19.4578	0.0064
19.4858	0.0064
19.5138	0.0063
19.5419	0.0063
19.5699	0.0063
19.598	0.0062
19.626	0.0062
19.654	0.0061
19.6821	0.0061
19.7101	0.0061
19.7381	0.006
19.7662	0.006
19.7942	0.006
19.8223	0.0059
19.8503	0.0059
19.8783	0.0059
19.9064	0.0058
19.9344	0.0058
19.9624	0.0058
19.9905	0.0057
20.0185	0.0057
20.0466	0.0057
20.0746	0.0056
20.1026	0.0056
20.1307	0.0056
20.1587	0.0056
20.1867	0.0055
20.2148	0.0055
20.2428	0.0055
20.2709	0.0054
20.2989	0.0054
20.3269	0.0054
20.355	0.0054
20.383	0.0053
20.411	0.0053
20.4391	0.0053
20.4671	0.0053
20.4951	0.0052
20.5232	0.0052
20.5512	0.0052
20.5793	0.0051
20.6073	0.0051
20.6353	0.0051
20.6634	0.0051
20.6914	0.005
20.7194	0.005
20.7475	0.005
20.7755	0.005
20.8036	0.0049
20.8316	0.0049
20.8596	0.0049
20.8877	0.0049
20.9157	0.0049
20.9437	0.0048
20.9718	0.0048
20.9998	0.0048
21.0279	0.0048
21.0559	0.0047
21.0839	0.0047
21.112	0.0047
21.14	0.0047
21.168	0.0047
21.1961	0.0046
21.2241	0.0046
21.2522	0.0046
21.2802	0.0046
21.3082	0.0045
21.3363	0.0045
21.3643	0.0045
21.3923	0.0045
21.4204	0.0045
21.4484	0.0044
21.4764	0.0044
21.5045	0.0044
21.5325	0.0044
21.5606	0.0044
21.5886	0.0043
21.6166	0.0043
21.6447	0.0043
21.6727	0.0043
21.7007	0.0043
21.7288	0.0043
21.7568	0.0042
21.7849	0.0042
21.8129	0.0042
21.8409	0.0042
21.869	0.0042
21.897	0.0041
21.925	0.0041
21.9531	0.0041
21.9811	0.0041
22.0092	0.0041
22.0372	0.0041
22.0652	0.004
22.0933	0.004
22.1213	0.004
22.1493	0.004
22.1774	0.004
22.2054	0.004
22.2335	0.0039
22.2615	0.0039
22.2895	0.0039
22.3176	0.0039
22.3456	0.0039
22.3736	0.0039
22.4017	0.0038
22.4297	0.0038
22.4577	0.0038
22.4858	0.0038
22.5138	0.0038
22.5419	0.0038
22.5699	0.0038
22.5979	0.0037
22.626	0.0037
22.654	0.0037
22.682	0.0037
22.7101	0.0037
22.7381	0.0037
22.7662	0.0036
22.7942	0.0036
22.8222	0.0036
22.8503	0.0036
22.8783	0.0036
22.9063	0.0036
22.9344	0.0036
22.9624	0.0035
22.9905	0.0035
23.0185	0.0035
23.0465	0.0035
23.0746	0.0035
23.1026	0.0035
23.1306	0.0035
23.1587	0.0035
23.1867	0.0034
23.2148	0.0034
23.2428	0.0034
23.2708	0.0034
23.2989	0.0034
23.3269	0.0034
23.3549	0.0034
23.383	0.0033
23.411	0.0033
23.439	0.0033
23.4671	0.0033
23.4951	0.0033
23.5232	0.0033
23.5512	0.0033
23.5792	0.0033
23.6073	0.0032
23.6353	0.0032
23.6633	0.0032
23.6914	0.0032
23.7194	0.0032
23.7475	0.0032
23.7755	0.0032
23.8035	0.0032
23.8316	0.0032
23.8596	0.0031
23.8876	0.0031
23.9157	0.0031
23.9437	0.0031
23.9718	0.0031
23.9998	0.0031
24.0278	0.0031
24.0559	0.0031
24.0839	0.0031
24.1119	0.003
24.14	0.003
24.168	0.003
24.1961	0.003
24.2241	0.003
24.2521	0.003
24.2802	0.003
24.3082	0.003
24.3362	0.003
24.3643	0.0029
24.3923	0.0029
24.4203	0.0029
24.4484	0.0029
24.4764	0.0029
24.5045	0.0029
24.5325	0.0029
24.5605	0.0029
24.5886	0.0029
24.6166	0.0029
24.6446	0.0028
24.6727	0.0028
24.7007	0.0028
24.7288	0.0028
24.7568	0.0028
24.7848	0.0028
24.8129	0.0028
24.8409	0.0028
24.8689	0.0028
24.897	0.0028
24.925	0.0027
24.9531	0.0027
24.9811	0.0027
25.0091	0.0027
25.0372	0.0027
25.0652	0.0027
25.0932	0.0027
25.1213	0.0027
25.1493	0.0027
25.1774	0.0027
25.2054	0.0027
25.2334	0.0027
25.2615	0.0026
25.2895	0.0026
25.3175	0.0026
25.3456	0.0026
25.3736	0.0026
25.4016	0.0026
25.4297	0.0026
25.4577	0.0026
25.4858	0.0026
25.5138	0.0026
25.5418	0.0026
25.5699	0.0026
25.5979	0.0025
25.6259	0.0025
25.654	0.0025
25.682	0.0025
25.7101	0.0025
25.7381	0.0025
25.7661	0.0025
25.7942	0.0025
25.8222	0.0025
25.8502	0.0025
25.8783	0.0025
25.9063	0.0025
25.9344	0.0024
25.9624	0.0024
25.9904	0.0024
26.0185	0.0024
26.0465	0.0024
26.0745	0.0024
26.1026	0.0024
26.1306	0.0024
26.1587	0.0024
26.1867	0.0024
26.2147	0.0024
26.2428	0.0024
26.2708	0.0024
26.2988	0.0024
26.3269	0.0023
26.3549	0.0023
26.3829	0.0023
26.411	0.0023
26.439	0.0023
26.4671	0.0023
26.4951	0.0023
26.5231	0.0023
26.5512	0.0023
26.5792	0.0023
26.6072	0.0023
26.6353	0.0023
26.6633	0.0023
26.6914	0.0023
26.7194	0.0023
26.7474	0.0022
26.7755	0.0022
26.8035	0.0022
26.8315	0.0022
26.8596	0.0022
26.8876	0.0022
26.9157	0.0022
26.9437	0.0022
26.9717	0.0022
26.9998	0.0022
27.0278	0.0022
27.0558	0.0022
27.0839	0.0022
27.1119	0.0022
27.14	0.0022
27.168	0.0022
27.196	0.0021
27.2241	0.0021
27.2521	0.0021
27.2801	0.0021
27.3082	0.0021
27.3362	0.0021
27.3642	0.0021
27.3923	0.0021
27.4203	0.0021
27.4484	0.0021
27.4764	0.0021
27.5044	0.0021
27.5325	0.0021
27.5605	0.0021
27.5885	0.0021
27.6166	0.0021
27.6446	0.0021
27.6727	0.0021
27.7007	0.002
27.7287	0.002
27.7568	0.002
27.7848	0.002
27.8128	0.002
27.8409	0.002
27.8689	0.002
27.897	0.002
27.925	0.002
27.953	0.002
27.9811	0.002
28.0091	0.002
28.0371	0.002
28.0652	0.002
28.0932	0.002
28.1213	0.002
28.1493	0.002
28.1773	0.002
28.2054	0.002
28.2334	0.002
28.2614	0.0019
28.2895	0.0019
28.3175	0.0019
28.3455	0.0019
28.3736	0.0019
28.4016	0.0019
28.4297	0.0019
28.4577	0.0019
28.4857	0.0019
28.5138	0.0019
28.5418	0.0019
28.5698	0.0019
28.5979	0.0019
28.6259	0.0019
28.654	0.0019
28.682	0.0019
28.71	0.0019
28.7381	0.0019
28.7661	0.0019
28.7941	0.0019
28.8222	0.0019
28.8502	0.0019
28.8783	0.0018
28.9063	0.0018
28.9343	0.0018
28.9624	0.0018
28.9904	0.0018
29.0184	0.0018
29.0465	0.0018
29.0745	0.0018
29.1026	0.0018
29.1306	0.0018
29.1586	0.0018
29.1867	0.0018
29.2147	0.0018
29.2427	0.0018
29.2708	0.0018
29.2988	0.0018
29.3268	0.0018
29.3549	0.0018
29.3829	0.0018
29.411	0.0018
29.439	0.0018
29.467	0.0018
29.4951	0.0018
29.5231	0.0018
29.5511	0.0018
29.5792	0.0018
29.6072	0.0018
29.6353	0.0017
29.6633	0.0017
29.6913	0.0017
29.7194	0.0017
29.7474	0.0017
29.7754	0.0017
29.8035	0.0017
29.8315	0.0017
29.8596	0.0017
29.8876	0.0017
29.9156	0.0017
29.9437	0.0017
29.9717	0.0017
29.9997	0.0017
30.0278	0.0017
30.0558	0.0017
30.0839	0.0017
30.1119	0.0017
30.1399	0.0017
30.168	0.0017
30.196	0.0017
30.224	0.0017
30.2521	0.0017
30.2801	0.0017
30.3081	0.0017
30.3362	0.0017
30.3642	0.0017
30.3923	0.0017
30.4203	0.0017
30.4483	0.0017
30.4764	0.0017
30.5044	0.0017
30.5324	0.0016
30.5605	0.0016
30.5885	0.0016
30.6166	0.0016
30.6446	0.0016
30.6726	0.0016
30.7007	0.0016
30.7287	0.0016
30.7567	0.0016
30.7848	0.0016
30.8128	0.0016
30.8409	0.0016
30.8689	0.0016
30.8969	0.0016
30.925	0.0016
30.953	0.0016
30.981	0.0016
31.0091	0.0016
31.0371	0.0016
31.0651	0.0016
31.0932	0.0016
31.1212	0.0016
31.1493	0.0016
31.1773	0.0016
31.2053	0.0016
31.2334	0.0016
31.2614	0.0016
31.2894	0.0016
31.3175	0.0016
31.3455	0.0016
31.3736	0.0016
31.4016	0.0016
31.4296	0.0016
31.4577	0.0016
31.4857	0.0016
31.5137	0.0016
31.5418	0.0016
31.5698	0.0016
31.5979	0.0016
31.6259	0.0016
31.6539	0.0016
31.682	0.0016
31.71	0.0016
31.738	0.0016
31.7661	0.0016
31.7941	0.0016
31.8222	0.0015
31.8502	0.0015
31.8782	0.0015
31.9063	0.0015
31.9343	0.0015
31.9623	0.0015
31.9904	0.0015
32.0184	0.0015
32.0464	0.0015
32.0745	0.0015
32.1025	0.0015
32.1306	0.0015
32.1586	0.0015
32.1866	0.0015
32.2147	0.0015
32.2427	0.0015
32.2707	0.0015
32.2988	0.0015
32.3268	0.0015
32.3549	0.0015
32.3829	0.0015
32.4109	0.0015
32.439	0.0015
32.467	0.0015
32.495	0.0015
32.5231	0.0015
32.5511	0.0015
32.5792	0.0015
32.6072	0.0015
32.6352	0.0015
32.6633	0.0015
32.6913	0.0015
32.7193	0.0015
32.7474	0.0015
32.7754	0.0015
32.8035	0.0015
32.8315	0.0015
32.8595	0.0015
32.8876	0.0015
32.9156	0.0015
32.9436	0.0015
32.9717	0.0015
32.9997	0.0015
33.0277	0.0015
33.0558	0.0015
33.0838	0.0015
33.1119	0.0015
33.1399	0.0015
33.1679	0.0015
33.196	0.0015
33.224	0.0015
33.252	0.0015
33.2801	0.0015
33.3081	0.0015
33.3362	0.0015
33.3642	0.0015
33.3922	0.0015
33.4203	0.0015
33.4483	0.0015
33.4763	0.0015
33.5044	0.0015
33.5324	0.0015
33.5605	0.0015
33.5885	0.0015
33.6165	0.0015
33.6446	0.0015
33.6726	0.0015
33.7006	0.0015
33.7287	0.0015
33.7567	0.0015
33.7848	0.0015
33.8128	0.0015
33.8408	0.0015
33.8689	0.0015
33.8969	0.0015
33.9249	0.0015
33.953	0.0015
33.981	0.0015
34.009	0.0015
34.0371	0.0015
34.0651	0.0015
34.0932	0.0015
34.1212	0.0015
34.1492	0.0015
34.1773	0.0015
34.2053	0.0015
34.2333	0.0015
34.2614	0.0015
34.2894	0.0015
34.3175	0.0015
34.3455	0.0015
34.3735	0.0015
34.4016	0.0015
34.4296	0.0015
34.4576	0.0015
34.4857	0.0015
34.5137	0.0015
34.5418	0.0015
34.5698	0.0015
34.5978	0.0015
34.6259	0.0015
34.6539	0.0015
34.6819	0.0015
34.71	0.0015
34.738	0.0015
34.7661	0.0015
34.7941	0.0015
34.8221	0.0015
34.8502	0.0015
34.8782	0.0015
34.9062	0.0015
34.9343	0.0015
34.9623	0.0015
34.9903	0.0015
35.0184	0.0015
35.0464	0.0015
35.0745	0.0015
35.1025	0.0016
35.1305	0.0016
35.1586	0.0016
35.1866	0.0016
35.2146	0.0016
35.2427	0.0016
35.2707	0.0016
35.2988	0.0016
35.3268	0.0016
35.3548	0.0016
35.3829	0.0016
35.4109	0.0016
35.4389	0.0016
35.467	0.0016
35.495	0.0016
35.5231	0.0016
35.5511	0.0016
35.5791	0.0016
35.6072	0.0016
35.6352	0.0016
35.6632	0.0016
35.6913	0.0016
35.7193	0.0016
35.7474	0.0016
35.7754	0.0016
35.8034	0.0016
35.8315	0.0016
35.8595	0.0016
35.8875	0.0016
35.9156	0.0016
35.9436	0.0016
35.9716	0.0016
35.9997	0.0016
36.0277	0.0016
36.0558	0.0017
36.0838	0.0017
36.1118	0.0017
36.1399	0.0017
36.1679	0.0017
36.1959	0.0017
36.224	0.0017
36.252	0.0017
36.2801	0.0017
36.3081	0.0017
36.3361	0.0017
36.3642	0.0017
36.3922	0.0017
36.4202	0.0017
36.4483	0.0017
36.4763	0.0017
36.5044	0.0017
36.5324	0.0017
36.5604	0.0017
36.5885	0.0017
36.6165	0.0017
36.6445	0.0018
36.6726	0.0018
36.7006	0.0018
36.7287	0.0018
36.7567	0.0018
36.7847	0.0018
36.8128	0.0018
36.8408	0.0018
36.8688	0.0018
36.8969	0.0018
36.9249	0.0018
36.9529	0.0018
36.981	0.0018
37.009	0.0018
37.0371	0.0018
37.0651	0.0018
37.0931	0.0019
37.1212	0.0019
37.1492	0.0019
37.1772	0.0019
37.2053	0.0019
37.2333	0.0019
37.2614	0.0019
37.2894	0.0019
37.3174	0.0019
37.3455	0.0019
37.3735	0.0019
37.4015	0.0019
37.4296	0.002
37.4576	0.002
37.4857	0.002
37.5137	0.002
37.5417	0.002
37.5698	0.002
37.5978	0.002
37.6258	0.002
37.6539	0.002
37.6819	0.002
37.71	0.002
37.738	0.0021
37.766	0.0021
37.7941	0.0021
37.8221	0.0021
37.8501	0.0021
37.8782	0.0021
37.9062	0.0021
37.9342	0.0021
37.9623	0.0021
37.9903	0.0022
38.0184	0.0022
38.0464	0.0022
38.0744	0.0022
38.1025	0.0022
38.1305	0.0022
38.1585	0.0022
38.1866	0.0022
38.2146	0.0023
38.2427	0.0023
38.2707	0.0023
38.2987	0.0023
38.3268	0.0023
38.3548	0.0023
38.3828	0.0023
38.4109	0.0024
38.4389	0.0024
38.467	0.0024
38.495	0.0024
38.523	0.0024
38.5511	0.0024
38.5791	0.0025
38.6071	0.0025
38.6352	0.0025
38.6632	0.0025
38.6913	0.0025
38.7193	0.0026
38.7473	0.0026
38.7754	0.0026
38.8034	0.0026
38.8314	0.0026
38.8595	0.0026
38.8875	0.0027
38.9155	0.0027
38.9436	0.0027
38.9716	0.0027
38.9997	0.0028
39.0277	0.0028
39.0557	0.0028
39.0838	0.0028
39.1118	0.0028
39.1398	0.0029
39.1679	0.0029
39.1959	0.0029
39.224	0.0029
39.252	0.003
39.28	0.003
39.3081	0.003
39.3361	0.0031
39.3641	0.0031
39.3922	0.0031
39.4202	0.0031
39.4483	0.0032
39.4763	0.0032
39.5043	0.0032
39.5324	0.0033
39.5604	0.0033
39.5884	0.0033
39.6165	0.0034
39.6445	0.0034
39.6726	0.0034
39.7006	0.0035
39.7286	0.0035
39.7567	0.0035
39.7847	0.0036
39.8127	0.0036
39.8408	0.0037
39.8688	0.0037
39.8968	0.0037
39.9249	0.0038
39.9529	0.0038
39.981	0.0039
40.009	0.0039
40.037	0.004
40.0651	0.004
40.0931	0.0041
40.1211	0.0041
40.1492	0.0042
40.1772	0.0042
40.2053	0.0043
40.2333	0.0043
40.2613	0.0044
40.2894	0.0044
40.3174	0.0045
40.3454	0.0046
40.3735	0.0046
40.4015	0.0047
40.4296	0.0048
40.4576	0.0048
40.4856	0.0049
40.5137	0.005
40.5417	0.005
40.5697	0.0051
40.5978	0.0052
40.6258	0.0053
40.6539	0.0053
40.6819	0.0054
40.7099	0.0055
40.738	0.0056
40.766	0.0057
40.794	0.0058
40.8221	0.0059
40.8501	0.006
40.8781	0.0061
40.9062	0.0062
40.9342	0.0063
40.9623	0.0064
40.9903	0.0065
41.0183	0.0066
41.0464	0.0067
41.0744	0.0069
41.1024	0.007
41.1305	0.0071
41.1585	0.0073
41.1866	0.0074
41.2146	0.0076
41.2426	0.0077
41.2707	0.0079
41.2987	0.008
41.3267	0.0082
41.3548	0.0084
41.3828	0.0086
41.4109	0.0088
41.4389	0.009
41.4669	0.0092
41.495	0.0094
41.523	0.0096
41.551	0.0098
41.5791	0.0101
41.6071	0.0103
41.6352	0.0106
41.6632	0.0108
41.6912	0.0111
41.7193	0.0114
41.7473	0.0117
41.7753	0.0121
41.8034	0.0124
41.8314	0.0128
41.8594	0.0131
41.8875	0.0135
41.9155	0.014
41.9436	0.0144
41.9716	0.0149
41.9996	0.0154
42.0277	0.0159
42.0557	0.0164
42.0837	0.017
42.1118	0.0176
42.1398	0.0183
42.1679	0.019
42.1959	0.0198
42.2239	0.0206
42.252	0.0214
42.28	0.0224
42.308	0.0234
42.3361	0.0245
42.3641	0.0256
42.3922	0.0269
42.4202	0.0283
42.4482	0.0299
42.4763	0.0316
42.5043	0.0335
42.5323	0.0356
42.5604	0.0379
42.5884	0.0406
42.6165	0.0436
42.6445	0.0471
42.6725	0.0512
42.7006	0.056
42.7286	0.0617
42.7566	0.0686
42.7847	0.0772
42.8127	0.0879
42.8407	0.1013
42.8688	0.1179
42.8968	0.1381
42.9249	0.1619
42.9529	0.1888
42.9809	0.218
43.009	0.2481
43.037	0.2782
43.065	0.3075
43.0931	0.336
43.1211	0.3638
43.1492	0.3911
43.1772	0.4178
43.2052	0.4435
43.2333	0.4676
43.2613	0.4901
43.2893	0.5111
43.3174	0.5315
43.3454	0.552
43.3735	0.5732
43.4015	0.5955
43.4295	0.6188
43.4576	0.6436
43.4856	0.6699
43.5136	0.6976
43.5417	0.7257
43.5697	0.753
43.5978	0.7778
43.6258	0.7992
43.6538	0.817
43.6819	0.8311
43.7099	0.8414
43.7379	0.8474
43.766	0.849
43.794	0.8471
43.822	0.8429
43.8501	0.8377
43.8781	0.8324
43.9062	0.8269
43.9342	0.8212
43.9622	0.8149
43.9903	0.8074
44.0183	0.7982
44.0463	0.787
44.0744	0.7736
44.1024	0.7588
44.1305	0.7439
44.1585	0.7299
44.1865	0.7173
44.2146	0.7061
44.2426	0.6955
44.2706	0.6843
44.2987	0.6715
44.3267	0.6566
44.3548	0.6394
44.3828	0.6207
44.4108	0.6012
44.4389	0.5818
44.4669	0.5633
44.4949	0.546
44.523	0.53
44.551	0.5152
44.5791	0.5015
44.6071	0.4894
44.6351	0.4794
44.6632	0.472
44.6912	0.4673
44.7192	0.4648
44.7473	0.4636
44.7753	0.4625
44.8033	0.4603
44.8314	0.4563
44.8594	0.4505
44.8875	0.4432
44.9155	0.4353
44.9435	0.4278
44.9716	0.4214
44.9996	0.4169
45.0276	0.4146
45.0557	0.4143
45.0837	0.4155
45.1118	0.4177
45.1398	0.42
45.1678	0.4219
45.1959	0.4228
45.2239	0.4223
45.2519	0.4203
45.28	0.4168
45.308	0.412
45.3361	0.406
45.3641	0.3991
45.3921	0.392
45.4202	0.3849
45.4482	0.3782
45.4762	0.3724
45.5043	0.3678
45.5323	0.3648
45.5604	0.364
45.5884	0.3654
45.6164	0.3689
45.6445	0.3735
45.6725	0.3782
45.7005	0.382
45.7286	0.3842
45.7566	0.3845
45.7846	0.3829
45.8127	0.3795
45.8407	0.3741
45.8688	0.3671
45.8968	0.3587
45.9248	0.3493
45.9529	0.3393
45.9809	0.3287
46.0089	0.3177
46.037	0.3059
46.065	0.293
46.0931	0.279
46.1211	0.264
46.1491	0.2485
46.1772	0.2329
46.2052	0.2178
46.2332	0.2033
46.2613	0.1897
46.2893	0.177
46.3174	0.1651
46.3454	0.1538
46.3734	0.1428
46.4015	0.132
46.4295	0.1211
46.4575	0.1101
46.4856	0.0993
46.5136	0.0888
46.5417	0.079
46.5697	0.0699
46.5977	0.0617
46.6258	0.0545
46.6538	0.0482
46.6818	0.0428
46.7099	0.0383
46.7379	0.0344
46.7659	0.0313
46.794	0.0286
46.822	0.0264
46.8501	0.0245
46.8781	0.0229
46.9061	0.0215
46.9342	0.0203
46.9622	0.0192
46.9902	0.0182
47.0183	0.0174
47.0463	0.0166
47.0744	0.0158
47.1024	0.0152
47.1304	0.0146
47.1585	0.014
47.1865	0.0135
47.2145	0.013
47.2426	0.0126
47.2706	0.0121
47.2987	0.0117
47.3267	0.0114
47.3547	0.011
47.3828	0.0107
47.4108	0.0104
47.4388	0.0101
47.4669	0.0098
47.4949	0.0095
47.523	0.0092
47.551	0.009
47.579	0.0088
47.6071	0.0086
47.6351	0.0083
47.6631	0.0081
47.6912	0.0079
47.7192	0.0078
47.7472	0.0076
47.7753	0.0074
47.8033	0.0072
47.8314	0.0071
47.8594	0.0069
47.8874	0.0068
47.9155	0.0066
47.9435	0.0065
47.9715	0.0064
47.9996	0.0063
48.0276	0.0061
48.0557	0.006
48.0837	0.0059
48.1117	0.0058
48.1398	0.0057
48.1678	0.0056
48.1958	0.0055
48.2239	0.0054
48.2519	0.0053
48.28	0.0052
48.308	0.0051
48.336	0.005
48.3641	0.0049
48.3921	0.0049
48.4201	0.0048
48.4482	0.0047
48.4762	0.0046
48.5043	0.0045
48.5323	0.0045
48.5603	0.0044
48.5884	0.0043
48.6164	0.0043
48.6444	0.0042
48.6725	0.0041
48.7005	0.0041
48.7285	0.004
48.7566	0.004
48.7846	0.0039
48.8127	0.0039
48.8407	0.0038
48.8687	0.0038
48.8968	0.0037
48.9248	0.0037
48.9528	0.0036
48.9809	0.0036
49.0089	0.0035
49.037	0.0035
49.065	0.0034
49.093	0.0034
49.1211	0.0033
49.1491	0.0033
49.1771	0.0032
49.2052	0.0032
49.2332	0.0032
49.2613	0.0031
49.2893	0.0031
49.3173	0.0031
49.3454	0.003
49.3734	0.003
49.4014	0.003
49.4295	0.0029
49.4575	0.0029
49.4856	0.0029
49.5136	0.0028
49.5416	0.0028
49.5697	0.0028
49.5977	0.0027
49.6257	0.0027
49.6538	0.0027
49.6818	0.0026
49.7098	0.0026
49.7379	0.0026
49.7659	0.0026
49.794	0.0025
49.822	0.0025
49.85	0.0025
49.8781	0.0025
49.9061	0.0024
49.9341	0.0024
49.9622	0.0024
49.9902	0.0024
50.0183	0.0023
50.0463	0.0023
50.0743	0.0023
50.1024	0.0023
50.1304	0.0022
50.1584	0.0022
50.1865	0.0022
50.2145	0.0022
50.2426	0.0022
50.2706	0.0021
50.2986	0.0021
50.3267	0.0021
50.3547	0.0021
50.3827	0.0021
50.4108	0.002
50.4388	0.002
50.4669	0.002
50.4949	0.002
50.5229	0.002
50.551	0.002
50.579	0.0019
50.607	0.0019
50.6351	0.0019
50.6631	0.0019
50.6911	0.0019
50.7192	0.0019
50.7472	0.0018
50.7753	0.0018
50.8033	0.0018
50.8313	0.0018
50.8594	0.0018
50.8874	0.0018
50.9154	0.0018
50.9435	0.0017
50.9715	0.0017
50.9996	0.0017
51.0276	0.0017
51.0556	0.0017
51.0837	0.0017
51.1117	0.0017
51.1397	0.0016
51.1678	0.0016
51.1958	0.0016
51.2239	0.0016
51.2519	0.0016
51.2799	0.0016
51.308	0.0016
51.336	0.0016
51.364	0.0015
51.3921	0.0015
51.4201	0.0015
51.4481	0.0015
51.4762	0.0015
51.5042	0.0015
51.5323	0.0015
51.5603	0.0015
51.5883	0.0015
51.6164	0.0014
51.6444	0.0014
51.6724	0.0014
51.7005	0.0014
51.7285	0.0014
51.7566	0.0014
51.7846	0.0014
51.8126	0.0014
51.8407	0.0014
51.8687	0.0014
51.8967	0.0014
51.9248	0.0013
51.9528	0.0013
51.9809	0.0013
52.0089	0.0013
52.0369	0.0013
52.065	0.0013
52.093	0.0013
52.121	0.0013
52.1491	0.0013
52.1771	0.0013
52.2052	0.0013
52.2332	0.0013
52.2612	0.0012
52.2893	0.0012
52.3173	0.0012
52.3453	0.0012
52.3734	0.0012
52.4014	0.0012
52.4294	0.0012
52.4575	0.0012
52.4855	0.0012
52.5136	0.0012
52.5416	0.0012
52.5696	0.0012
52.5977	0.0012
52.6257	0.0011
52.6537	0.0011
52.6818	0.0011
52.7098	0.0011
52.7379	0.0011
52.7659	0.0011
52.7939	0.0011
52.822	0.0011
52.85	0.0011
52.878	0.0011
52.9061	0.0011
52.9341	0.0011
52.9622	0.0011
52.9902	0.0011
53.0182	0.0011
53.0463	0.0011
53.0743	0.001
53.1023	0.001
53.1304	0.001
53.1584	0.001
53.1865	0.001
53.2145	0.001
53.2425	0.001
53.2706	0.001
53.2986	0.001
53.3266	0.001
53.3547	0.001
53.3827	0.001
53.4107	0.001
53.4388	0.001
53.4668	0.001
53.4949	0.001
53.5229	0.001
53.5509	0.001
53.579	0.001
53.607	9E-4
53.635	9E-4
53.6631	9E-4
53.6911	9E-4
53.7192	9E-4
53.7472	9E-4
53.7752	9E-4
53.8033	9E-4
53.8313	9E-4
53.8593	9E-4
53.8874	9E-4
53.9154	9E-4
53.9435	9E-4
53.9715	9E-4
53.9995	9E-4
54.0276	9E-4
54.0556	9E-4
54.0836	9E-4
54.1117	9E-4
54.1397	9E-4
54.1678	9E-4
54.1958	9E-4
54.2238	8E-4
54.2519	8E-4
54.2799	8E-4
54.3079	8E-4
54.336	8E-4
54.364	8E-4
54.392	8E-4
54.4201	8E-4
54.4481	8E-4
54.4762	8E-4
54.5042	8E-4
54.5322	8E-4
54.5603	8E-4
54.5883	8E-4
54.6163	8E-4
54.6444	8E-4
54.6724	8E-4
54.7005	8E-4
54.7285	8E-4
54.7565	8E-4
54.7846	8E-4
54.8126	8E-4
54.8406	8E-4
54.8687	8E-4
54.8967	8E-4
54.9248	8E-4
54.9528	8E-4
54.9808	7E-4
55.0089	7E-4
55.0369	7E-4
55.0649	7E-4
55.093	7E-4
55.121	7E-4
55.1491	7E-4
55.1771	7E-4
55.2051	7E-4
55.2332	7E-4
55.2612	7E-4
55.2892	7E-4
55.3173	7E-4
55.3453	7E-4
55.3733	7E-4
55.4014	7E-4
55.4294	7E-4
55.4575	7E-4
55.4855	7E-4
55.5135	7E-4
55.5416	7E-4
55.5696	7E-4
55.5976	7E-4
55.6257	7E-4
55.6537	7E-4
55.6818	7E-4
55.7098	7E-4
55.7378	7E-4
55.7659	7E-4
55.7939	7E-4
55.8219	7E-4
55.85	7E-4
55.878	7E-4
55.9061	7E-4
55.9341	7E-4
55.9621	6E-4
55.9902	6E-4
56.0182	6E-4
56.0462	6E-4