# Wavelength(Î¼m) Extinction_cofficient
0.20664	2.3253
0.20705	2.3304
0.20746	2.3356
0.20787	2.3409
0.20828	2.3462
0.2087	2.3516
0.20911	2.3571
0.20953	2.3626
0.20995	2.3682
0.21037	2.3739
0.21079	2.3796
0.21122	2.3854
0.21165	2.3913
0.21207	2.3973
0.2125	2.4034
0.21293	2.4096
0.21337	2.4158
0.2138	2.4222
0.21424	2.4287
0.21468	2.4353
0.21512	2.442
0.21556	2.4488
0.216	2.4558
0.21645	2.4629
0.2169	2.4702
0.21735	2.4776
0.2178	2.4851
0.21825	2.4928
0.21871	2.5007
0.21917	2.5087
0.21962	2.5168
0.22009	2.5252
0.22055	2.5336
0.22101	2.5423
0.22148	2.551
0.22195	2.5599
0.22242	2.5688
0.22289	2.5779
0.22337	2.587
0.22384	2.596
0.22432	2.6051
0.2248	2.6141
0.22529	2.6229
0.22577	2.6315
0.22626	2.6398
0.22675	2.6479
0.22724	2.6555
0.22773	2.6626
0.22823	2.6693
0.22873	2.6754
0.22923	2.6808
0.22973	2.6857
0.23023	2.6899
0.23074	2.6934
0.23125	2.6963
0.23176	2.6986
0.23227	2.7003
0.23279	2.7014
0.23331	2.702
0.23383	2.7021
0.23435	2.7017
0.23487	2.701
0.2354	2.6999
0.23593	2.6985
0.23646	2.6969
0.237	2.695
0.23753	2.6931
0.23807	2.691
0.23862	2.6889
0.23916	2.6869
0.23971	2.685
0.24026	2.6833
0.24081	2.682
0.24136	2.6811
0.24192	2.6808
0.24248	2.681
0.24304	2.682
0.2436	2.6838
0.24417	2.6864
0.24474	2.6898
0.24531	2.6942
0.24589	2.6995
0.24647	2.7056
0.24705	2.7126
0.24763	2.7204
0.24822	2.729
0.24881	2.7382
0.2494	2.7482
0.24999	2.7587
0.25059	2.7697
0.25119	2.7813
0.25179	2.7933
0.2524	2.8058
0.25301	2.8186
0.25362	2.8318
0.25424	2.8452
0.25485	2.8591
0.25547	2.8732
0.2561	2.8875
0.25672	2.9022
0.25735	2.9171
0.25799	2.9323
0.25862	2.9478
0.25926	2.9635
0.25991	2.9795
0.26055	2.9957
0.2612	3.0122
0.26185	3.029
0.26251	3.0461
0.26317	3.0635
0.26383	3.0812
0.2645	3.0992
0.26516	3.1175
0.26584	3.1361
0.26651	3.155
0.26719	3.1743
0.26787	3.1939
0.26856	3.2139
0.26925	3.2342
0.26994	3.2548
0.27064	3.2759
0.27134	3.2973
0.27204	3.319
0.27275	3.3411
0.27346	3.3636
0.27418	3.3865
0.2749	3.4097
0.27562	3.4333
0.27634	3.4573
0.27708	3.4815
0.27781	3.5061
0.27855	3.5311
0.27929	3.5563
0.28003	3.5818
0.28078	3.6075
0.28154	3.6335
0.2823	3.6596
0.28306	3.6859
0.28382	3.7122
0.2846	3.7385
0.28537	3.7648
0.28615	3.791
0.28693	3.817
0.28772	3.8426
0.28851	3.8679
0.28931	3.8926
0.29011	3.9166
0.29091	3.9397
0.29172	3.9619
0.29253	3.9829
0.29335	4.0024
0.29418	4.0204
0.295	4.0365
0.29584	4.0506
0.29667	4.0623
0.29751	4.0714
0.29836	4.0776
0.29921	4.0807
0.30007	4.0805
0.30093	4.0765
0.3018	4.0688
0.30267	4.057
0.30354	4.041
0.30442	4.0207
0.30531	3.9962
0.3062	3.9674
0.3071	3.9345
0.308	3.8977
0.30891	3.8572
0.30982	3.8133
0.31074	3.7665
0.31166	3.7172
0.31259	3.6659
0.31353	3.6131
0.31447	3.5594
0.31541	3.5052
0.31636	3.4511
0.31732	3.3975
0.31828	3.3449
0.31925	3.2936
0.32023	3.244
0.32121	3.1964
0.3222	3.1509
0.32319	3.1078
0.32419	3.0671
0.32519	3.029
0.32621	2.9935
0.32722	2.9605
0.32825	2.9301
0.32928	2.9021
0.33032	2.8766
0.33136	2.8533
0.33241	2.8322
0.33347	2.8132
0.33453	2.7961
0.3356	2.7808
0.33668	2.7672
0.33776	2.7551
0.33885	2.7444
0.33995	2.7349
0.34106	2.7265
0.34217	2.7192
0.34329	2.7127
0.34442	2.707
0.34555	2.702
0.3467	2.6975
0.34785	2.6935
0.349	2.6899
0.35017	2.6865
0.35134	2.6833
0.35252	2.6803
0.35371	2.6773
0.35491	2.6743
0.35612	2.6712
0.35733	2.668
0.35855	2.6647
0.35978	2.661
0.36102	2.6571
0.36227	2.6529
0.36352	2.6482
0.36479	2.6432
0.36606	2.6376
0.36734	2.6315
0.36864	2.6249
0.36994	2.6176
0.37125	2.6096
0.37256	2.601
0.37389	2.5915
0.37523	2.5813
0.37658	2.5703
0.37794	2.5585
0.3793	2.5459
0.38068	2.5327
0.38207	2.5189
0.38346	2.5046
0.38487	2.49
0.38629	2.4751
0.38772	2.4599
0.38916	2.4444
0.39061	2.4285
0.39207	2.4121
0.39354	2.3952
0.39502	2.3776
0.39651	2.3591
0.39802	2.3399
0.39954	2.3197
0.40106	2.2985
0.4026	2.2763
0.40416	2.2529
0.40572	2.2283
0.40729	2.2025
0.40888	2.1753
0.41048	2.1466
0.4121	2.1165
0.41372	2.0848
0.41536	2.0514
0.41701	2.0163
0.41868	1.9794
0.42036	1.9406
0.42205	1.9
0.42375	1.8574
0.42547	1.8128
0.42721	1.7664
0.42895	1.7181
0.43072	1.6682
0.43249	1.6168
0.43428	1.5642
0.43609	1.5107
0.43791	1.4568
0.43975	1.4027
0.4416	1.349
0.44347	1.2961
0.44535	1.2442
0.44725	1.1938
0.44917	1.1449
0.4511	1.0979
0.45305	1.0528
0.45501	1.0096
0.457	0.96835
0.459	0.92893
0.46101	0.89129
0.46305	0.85535
0.4651	0.82102
0.46718	0.78819
0.46927	0.75678
0.47138	0.72669
0.4735	0.69785
0.47565	0.67017
0.47782	0.64359
0.48001	0.61803
0.48221	0.59346
0.48444	0.5698
0.48669	0.54703
0.48896	0.52509
0.49125	0.50396
0.49356	0.48359
0.4959	0.46395
0.49825	0.44503
0.50063	0.42678
0.50303	0.4092
0.50546	0.39225
0.50791	0.37591
0.51038	0.36017
0.51287	0.34501
0.5154	0.33041
0.51794	0.31634
0.52051	0.3028
0.52311	0.28977
0.52573	0.27724
0.52838	0.26518
0.53106	0.25359
0.53376	0.24253
0.53649	0.23181
0.53925	0.22151
0.54204	0.21162
0.54485	0.20212
0.5477	0.193
0.55057	0.18426
0.55348	0.17588
0.55642	0.16784
0.55939	0.16013
0.56239	0.15275
0.56542	0.14567
0.56848	0.1389
0.57158	0.13241
0.57472	0.1262
0.57788	0.12026
0.58108	0.11458
0.58432	0.10914
0.5876	0.10394
0.59091	0.09897
0.59426	0.09422
0.59764	0.08968
0.60107	0.08535
0.60453	0.08121
0.60804	0.07726
0.61159	0.07349
0.61517	0.06989
0.6188	0.06645
0.62248	0.06318
0.6262	0.06005
0.62996	0.05707
0.63376	0.05423
0.63762	0.05153
0.64152	0.04895
0.64547	0.04649
0.64947	0.04415
0.65351	0.04192
0.65761	0.0398
0.66176	0.03778
0.66596	0.03585
0.67022	0.03403
0.67453	0.03228
0.6789	0.03063
0.68332	0.02905
0.68781	0.02755
0.69235	0.02612
0.69695	0.02477
0.70161	0.02348
0.70634	0.02225
0.71113	0.02109
0.71598	0.01998
0.72091	0.01893
0.7259	0.01793
0.73096	0.01699
0.73609	0.01609
0.74129	0.01523
0.74657	0.01442
0.75192	0.01365
0.75735	0.01291
0.76286	0.01222
0.76845	0.01156
0.77413	0.01093
0.77988	0.01034
0.78573	0.00978
0.79166	0.00924
0.79768	0.00874
0.8038	0.00826
0.81	0.0078
0.81631	0.00737
0.82271	0.00696
0.82922	0.00658
0.83583	0.00621
0.84255	0.00586
0.84937	0.00553
0.85631	0.00522
0.86336	0.00492
0.87052	0.00464
0.87781	0.00438
0.88522	0.00413
0.89276	0.00389
0.90042	0.00367
0.90822	0.00346
0.91616	0.00326
0.92423	0.00307
0.93245	0.00289
0.94082	0.00272
0.94933	0.00256
0.95801	0.00241
0.96684	0.00226
0.97584	0.00213
0.985	0.002
0.99434	0.00188
1.0039	0.00177
1.0136	0.00166
1.0235	0.00156
1.0335	0.00146
1.0438	0.00137
1.0543	0.00129
1.065	0.00121
1.076	0.00113
1.0871	0.00106
1.0985	9.9551E-4
1.1101	9.3269E-4
1.122	8.7357E-4
1.1342	8.1793E-4
1.1466	7.656E-4
1.1592	7.1639E-4
1.1722	6.7012E-4
1.1854	6.2663E-4
1.199	5.8577E-4
1.2129	5.4739E-4
1.2271	5.1135E-4
1.2416	4.7752E-4
1.2565	4.4577E-4
1.2717	4.1598E-4
1.2873	3.8805E-4
1.3033	3.6186E-4
1.3197	3.3731E-4
1.3365	3.1431E-4
1.3538	2.9276E-4
1.3715	2.7259E-4
1.3897	2.5371E-4
1.4083	2.3605E-4
1.4275	2.1952E-4
1.4472	2.0408E-4
1.4675	1.8963E-4
1.4883	1.7614E-4
1.5097	1.6354E-4
1.5318	1.5178E-4
1.5545	1.408E-4
1.5779	1.3055E-4
1.602	1.21E-4
1.6268	1.1209E-4
1.6525	1.0379E-4
1.6789	9.6062E-5
1.7062	8.8865E-5
1.7345	8.2166E-5
1.7636	7.5934E-5
1.7938	7.0139E-5
1.825	6.4753E-5
1.8573	5.9748E-5
1.8908	5.51E-5
1.9256	5.0785E-5
1.9616	4.6782E-5
1.999	4.3069E-5
2.0378	3.9628E-5
2.0782	3.6439E-5
2.1202	3.3485E-5
2.164	3.0752E-5
2.2096	2.8223E-5
2.2571	2.5884E-5
2.3068	2.3723E-5
2.3587	2.1726E-5
2.413	1.9883E-5
2.4698	1.8182E-5
2.5294	1.6614E-5
2.5919	1.5169E-5
2.6576	1.3837E-5
2.7267	1.2612E-5
2.7995	1.1484E-5
2.8762	1.0447E-5
2.9574	9.495E-6
3.0432	8.6205E-6
3.1341	7.818E-6
3.2307	7.0823E-6
3.3334	6.4082E-6
3.4429	5.791E-6
3.5597	5.2264E-6
3.6848	4.7103E-6
3.819	4.2389E-6
3.9634	3.8088E-6
4.119	3.4165E-6
4.2875	3.0593E-6
4.4702	2.7341E-6
4.6693	2.4385E-6
4.8869	2.17E-6
5.1258	1.9264E-6
5.3892	1.7057E-6
5.6812	1.5059E-6
6.0066	1.3253E-6
6.3716	1.1623E-6
6.7838	1.0153E-6
7.253	8.8297E-7
7.792	7.6404E-7
8.4174	6.5732E-7
9.1521	5.6172E-7
10.027	4.7626E-7
11.087	4.0002E-7
12.398	3.3214E-7