# Wavelength(Î¼m) Extinction_cofficient
0.02999	0.12127
0.03012	0.1219
0.03026	0.12254
0.03039	0.12419
0.03052	0.12592
0.03066	0.12764
0.03079	0.12935
0.03093	0.13104
0.03106	0.13273
0.0312	0.13441
0.03133	0.13608
0.03147	0.13774
0.03161	0.13938
0.03175	0.14102
0.03189	0.14264
0.03203	0.14425
0.03217	0.14585
0.03231	0.14744
0.03245	0.14902
0.03259	0.15058
0.03274	0.15213
0.03288	0.15367
0.03303	0.15519
0.03317	0.15671
0.03332	0.15821
0.03346	0.15969
0.03361	0.16117
0.03376	0.16263
0.03391	0.16407
0.03405	0.16551
0.0342	0.16693
0.03435	0.16834
0.0345	0.16973
0.03466	0.17111
0.03481	0.17247
0.03496	0.17383
0.03511	0.17516
0.03527	0.17649
0.03542	0.1778
0.03558	0.17909
0.03574	0.18037
0.03589	0.18164
0.03605	0.18289
0.03621	0.18413
0.03637	0.18535
0.03653	0.18655
0.03669	0.18774
0.03685	0.18892
0.03701	0.19008
0.03717	0.19122
0.03734	0.19234
0.0375	0.19345
0.03766	0.19455
0.03783	0.19562
0.038	0.19668
0.03816	0.19772
0.03833	0.19874
0.0385	0.19975
0.03867	0.20073
0.03884	0.20169
0.03901	0.20264
0.03918	0.20356
0.03935	0.20446
0.03952	0.20534
0.0397	0.2062
0.03987	0.20703
0.04005	0.20783
0.04022	0.20861
0.0404	0.20936
0.04058	0.21007
0.04075	0.21077
0.04093	0.21151
0.04111	0.21222
0.04129	0.21291
0.04147	0.21357
0.04166	0.2142
0.04184	0.2148
0.04202	0.21535
0.04221	0.21586
0.04239	0.21633
0.04258	0.21674
0.04277	0.2171
0.04295	0.2174
0.04314	0.21763
0.04333	0.21779
0.04352	0.21785
0.04371	0.21782
0.0439	0.21766
0.0441	0.21736
0.04429	0.21687
0.04449	0.21612
0.04468	0.21489
0.04488	0.21507
0.04507	0.21589
0.04527	0.21682
0.04547	0.2177
0.04567	0.2184
0.04587	0.21879
0.04607	0.21854
0.04627	0.21918
0.04648	0.22215
0.04668	0.22628
0.04689	0.23079
0.04709	0.23545
0.0473	0.24016
0.04751	0.24483
0.04771	0.24939
0.04792	0.25378
0.04813	0.25791
0.04835	0.26166
0.04856	0.26484
0.04877	0.26708
0.04899	0.26732
0.0492	0.27166
0.04942	0.28145
0.04963	0.2936
0.04985	0.30686
0.05007	0.32077
0.05029	0.33507
0.05051	0.34956
0.05073	0.36393
0.05096	0.37814
0.05118	0.39937
0.0514	0.42219
0.05163	0.43646
0.05186	0.45352
0.05208	0.47866
0.05231	0.50234
0.05254	0.52101
0.05277	0.5376
0.053	0.55334
0.05324	0.5687
0.05347	0.58409
0.05371	0.599
0.05394	0.6119
0.05418	0.62297
0.05442	0.63314
0.05465	0.64265
0.05489	0.65165
0.05514	0.66022
0.05538	0.66841
0.05562	0.67625
0.05586	0.6838
0.05611	0.69106
0.05636	0.69807
0.0566	0.70484
0.05685	0.71139
0.0571	0.71773
0.05735	0.72388
0.0576	0.72982
0.05786	0.73558
0.05811	0.74116
0.05837	0.74659
0.05862	0.75188
0.05888	0.75702
0.05914	0.76205
0.0594	0.76699
0.05966	0.77189
0.05992	0.77671
0.06018	0.77951
0.06045	0.77971
0.06071	0.77918
0.06098	0.77805
0.06125	0.7763
0.06152	0.7778
0.06179	0.78057
0.06206	0.78345
0.06233	0.78633
0.0626	0.78921
0.06288	0.79214
0.06315	0.7912
0.06343	0.7895
0.06371	0.78743
0.06399	0.78507
0.06427	0.78243
0.06455	0.77954
0.06484	0.77641
0.06512	0.77306
0.06541	0.76949
0.06569	0.76571
0.06598	0.76174
0.06627	0.75744
0.06656	0.7526
0.06685	0.7475
0.06715	0.74217
0.06744	0.7361
0.06774	0.72968
0.06804	0.72222
0.06834	0.71382
0.06864	0.70525
0.06894	0.69678
0.06924	0.68849
0.06954	0.68049
0.06985	0.67326
0.07016	0.67152
0.07046	0.67227
0.07077	0.67268
0.07108	0.67294
0.0714	0.6732
0.07171	0.67378
0.07202	0.68159
0.07234	0.69189
0.07266	0.6935
0.07298	0.68992
0.0733	0.68648
0.07362	0.6829
0.07394	0.67898
0.07427	0.674
0.07459	0.66595
0.07492	0.65569
0.07525	0.64583
0.07558	0.63622
0.07591	0.6268
0.07624	0.61759
0.07658	0.60859
0.07691	0.59984
0.07725	0.59141
0.07759	0.58357
0.07793	0.57708
0.07827	0.57183
0.07862	0.56635
0.07896	0.56078
0.07931	0.55517
0.07966	0.54955
0.08001	0.54392
0.08036	0.53832
0.08071	0.53273
0.08107	0.52718
0.08142	0.52165
0.08178	0.51615
0.08214	0.51066
0.0825	0.50509
0.08286	0.49921
0.08322	0.49328
0.08359	0.48792
0.08396	0.48336
0.08432	0.47876
0.0847	0.47422
0.08507	0.46975
0.08544	0.46538
0.08582	0.46109
0.08619	0.45686
0.08657	0.45254
0.08695	0.44753
0.08733	0.44234
0.08772	0.43834
0.0881	0.43582
0.08849	0.43609
0.08888	0.44627
0.08927	0.4592
0.08966	0.45382
0.09005	0.44245
0.09045	0.43726
0.09084	0.44642
0.09124	0.45292
0.09164	0.4559
0.09205	0.45359
0.09245	0.43996
0.09286	0.42759
0.09326	0.41568
0.09367	0.40127
0.09408	0.39012
0.0945	0.3834
0.09491	0.38267
0.09533	0.39216
0.09575	0.39545
0.09617	0.39557
0.09659	0.39499
0.09701	0.39031
0.09744	0.37716
0.09787	0.38413
0.0983	0.412
0.09873	0.43027
0.09916	0.4383
0.0996	0.4612
0.10003	0.50418
0.10047	0.56116
0.10091	0.60803
0.10136	0.65332
0.1018	0.693
0.10225	0.74001
0.1027	0.79133
0.10315	0.83884
0.1036	0.89875
0.10406	0.9589
0.10451	0.97299
0.10497	0.88767
0.10543	0.75041
0.1059	0.61608
0.10636	0.5304
0.10683	0.49236
0.1073	0.45993
0.10777	0.42327
0.10824	0.35898
0.10872	0.26757
0.10919	0.1785
0.10967	0.13173
0.11015	0.12405
0.11064	0.11639
0.11112	0.10877
0.11161	0.10118
0.1121	0.09363
0.11259	0.08611
0.11309	0.07862
0.11358	0.07134
0.11408	0.06495
0.11458	0.05859
0.11509	0.05226
0.11559	0.04596
0.1161	0.03968
0.11661	0.0335
0.11712	0.03164
0.11763	0.02979
0.11815	0.02794
0.11867	0.0261
0.11919	0.02427
0.11971	0.02294
0.12024	0.02162
0.12077	0.02032
0.1213	0.01901
0.12183	0.01798
0.12236	0.01723
0.1229	0.01649
0.12344	0.01574
0.12398	0.01383
0.12453	0.01143
0.12507	0.00904
0.12562	0.00874
0.12617	0.00854
0.12673	0.00835
0.12729	0.00816
0.12784	0.00797
0.12841	0.00777
0.12897	0.00758
0.12954	0.0074
0.1301	0.00728
0.13067	0.00717
0.13125	0.00706
0.13182	0.00696
0.1324	0.00685
0.13298	0.00675
0.13357	0.00662
0.13415	0.00644
0.13474	0.00626
0.13534	0.00608
0.13593	0.0059
0.13653	0.00573
0.13713	0.00555
0.13773	0.00538
0.13833	0.00553
0.13894	0.00567
0.13955	0.00582
0.14016	0.00585
0.14078	0.0058
0.14139	0.00566
0.14202	0.00546
0.14264	0.00526
0.14327	0.00506
0.14389	0.00488
0.14452	0.00488
0.14516	0.00489
0.1458	0.00489
0.14644	0.00489
0.14708	0.00488
0.14773	0.00481
0.14837	0.00474
0.14903	0.00468
0.14968	0.00461
0.15034	0.00454
0.151	0.00447
0.15166	0.00441
0.15232	0.00438
0.15299	0.00435
0.15367	0.00432
0.15434	0.00429
0.15502	0.00426
0.1557	0.00423
0.15638	0.00417
0.15707	0.00402
0.15776	0.00387
0.15845	0.00372
0.15915	0.00357
0.15985	0.00342
0.16055	0.00329
0.16125	0.00316
0.16196	0.00303
0.16267	0.00291
0.16338	0.0028
0.1641	0.00276
0.16482	0.00273
0.16555	0.0027
0.16627	0.00266
0.167	0.00263
0.16774	0.0026
0.16847	0.00257
0.16921	0.00254
0.16995	0.00251
0.1707	0.00248
0.17145	0.00244
0.1722	0.00241
0.17296	0.00238
0.17372	0.00235
0.17448	0.00232
0.17525	0.00229
0.17601	0.00226
0.17679	0.00223
0.17756	0.00219
0.17834	0.00216
0.17913	0.00213
0.17991	0.0021
0.1807	0.00207
0.1815	0.00204
0.18229	0.00201
0.18309	0.002
0.1839	0.00199
0.1847	0.00198
0.18551	0.00197
0.18633	0.00196
0.18715	0.00195
0.18797	0.00194
0.18879	0.00193
0.18962	0.00192
0.19045	0.00191
0.19129	0.0019
0.19213	0.00189
0.19297	0.00188
0.19382	0.00187
0.19467	0.00186
0.19553	0.00186
0.19638	0.00185
0.19725	0.00184
0.19811	0.00183
0.19898	0.00182
0.19986	0.00181
0.20073	0.0018
0.20162	0.00179
0.2025	0.00178
0.20339	0.00177
0.20428	0.00177
0.20518	0.00176
0.20608	0.00175
0.20698	0.00174
0.20789	0.00173
0.2088	0.00172
0.20972	0.00171
0.21064	0.00171
0.21157	0.0017
0.2125	0.00169
0.21343	0.00168
0.21437	0.00167
0.21531	0.00167
0.21625	0.00166
0.2172	0.00165
0.21816	0.00164
0.21911	0.00163
0.22007	0.00162
0.22104	0.00162
0.22201	0.00161
0.22298	0.0016
0.22396	0.00159
0.22495	0.00159
0.22594	0.00158
0.22693	0.00157
0.22792	0.00156
0.22892	0.00156
0.22993	0.00155
0.23094	0.00154
0.23195	0.00153
0.23297	0.00153
0.23399	0.00152
0.23502	0.00151
0.23605	0.0015
0.23709	0.0015
0.23813	0.00149
0.23917	0.00148
0.24022	0.00148
0.24128	0.00147
0.24234	0.00146
0.2434	0.00145
0.24447	0.00145
0.24554	0.00144
0.24662	0.00143
0.2477	0.00143
0.24879	0.00142
0.24988	0.00141
0.25098	0.00141
0.25208	0.0014
0.25319	0.0014
0.2543	0.00139
0.25542	0.00138
0.25654	0.00137
0.25766	0.00137
0.2588	0.00136
0.25993	0.00136
0.26107	0.00135
0.26222	0.00134
0.26337	0.00134
0.26453	0.00133
0.26569	0.00132
0.26685	0.00132
0.26802	0.00131
0.2692	0.00131
0.27038	0.0013
0.27157	0.00129
0.27276	0.00129
0.27396	0.00128
0.27516	0.00128
0.27637	0.00127
0.27758	0.00126
0.2788	0.00126
0.28003	0.00125
0.28125	0.00125
0.28249	0.00124
0.28373	0.00123
0.28498	0.00123
0.28623	0.00122
0.28748	0.00122
0.28874	0.00121
0.29001	0.00121
0.29129	0.0012
0.29256	0.0012
0.29385	0.00119
0.29514	0.00118
0.29643	0.00118
0.29773	0.00117
0.29904	0.00117
0.30036	0.00116
0.30167	0.00116
0.303	0.00115
0.30433	0.00115
0.30566	0.00114
0.30701	0.00113
0.30835	0.00113
0.30971	0.00112
0.31107	0.00112
0.31243	0.00111
0.3138	0.00111
0.31518	0.0011
0.31656	0.0011
0.31795	0.00109
0.31935	0.00109
0.32075	0.00108
0.32216	0.00108
0.32358	0.00107
0.325	0.00107
0.32642	0.00106
0.32786	0.00106
0.32929	0.00105
0.33074	0.00105
0.33219	0.00104
0.33365	0.00104
0.33512	0.00103
0.33659	0.00103
0.33806	0.00103
0.33955	0.00102
0.34104	0.00102
0.34253	0.00101
0.34404	0.00101
0.34555	0.001
0.34707	9.99E-4
0.34859	9.94E-4
0.35012	9.9E-4
0.35166	9.85E-4
0.3532	9.8E-4
0.35475	9.76E-4
0.35631	9.71E-4
0.35787	9.67E-4
0.35944	9.63E-4
0.36102	9.58E-4
0.36261	9.54E-4
0.3642	9.49E-4
0.3658	9.45E-4
0.3674	9.42E-4
0.36902	9.37E-4
0.37064	9.33E-4
0.37226	9.29E-4
0.3739	9.24E-4
0.37554	9.2E-4
0.37719	9.16E-4
0.37884	9.12E-4
0.38051	9.07E-4
0.38218	9.03E-4
0.38385	8.99E-4
0.38554	8.95E-4
0.38723	8.92E-4
0.38893	8.88E-4
0.39064	8.83E-4
0.39235	8.79E-4
0.39408	8.75E-4
0.39581	8.71E-4
0.39754	8.67E-4
0.39929	8.63E-4
0.40104	8.59E-4
0.4028	8.55E-4
0.40457	8.52E-4
0.40635	8.48E-4
0.40813	8.44E-4
0.40992	8.4E-4
0.41172	8.37E-4
0.41353	8.33E-4
0.41534	8.29E-4
0.41717	8.25E-4
0.419	8.21E-4
0.42084	8.18E-4
0.42269	8.15E-4
0.42454	8.11E-4
0.42641	8.07E-4
0.42828	8.03E-4
0.43016	8E-4
0.43205	7.96E-4
0.43394	7.92E-4
0.43585	7.89E-4
0.43776	7.86E-4
0.43968	7.82E-4
0.44161	7.79E-4
0.44355	7.75E-4
0.4455	7.71E-4
0.44745	7.68E-4
0.44942	7.64E-4
0.45139	7.61E-4
0.45337	7.58E-4
0.45536	7.55E-4
0.45736	7.51E-4
0.45937	7.48E-4
0.46139	7.44E-4
0.46341	7.41E-4
0.46545	7.37E-4
0.46749	7.35E-4
0.46954	7.31E-4
0.4716	7.28E-4
0.47367	7.25E-4
0.47575	7.21E-4
0.47784	7.18E-4
0.47994	7.15E-4
0.48205	7.11E-4
0.48416	7.09E-4
0.48629	7.06E-4
0.48842	7.02E-4
0.49057	6.99E-4
0.49272	6.96E-4
0.49488	6.93E-4
0.49706	6.89E-4
0.49924	6.87E-4
0.50143	6.84E-4
0.50363	6.81E-4
0.50584	6.78E-4
0.50806	6.74E-4
0.51029	6.71E-4
0.51253	6.68E-4
0.51478	6.65E-4
0.51704	6.63E-4
0.51931	6.6E-4
0.52159	6.57E-4
0.52388	6.54E-4
0.52618	6.51E-4
0.52849	6.48E-4
0.53081	6.45E-4
0.53314	6.43E-4
0.53548	6.4E-4
0.53783	6.37E-4
0.54019	6.34E-4
0.54256	6.31E-4
0.54495	6.28E-4
0.54734	6.25E-4
0.54974	6.22E-4
0.55215	6.2E-4
0.55458	6.17E-4
0.55701	6.14E-4
0.55946	6.11E-4
0.56191	6.09E-4
0.56438	6.06E-4
0.56686	6.03E-4
0.56935	6.01E-4
0.57185	5.98E-4
0.57436	5.96E-4
0.57688	5.93E-4
0.57941	5.9E-4
0.58195	5.87E-4
0.58451	5.85E-4
0.58707	5.83E-4
0.58965	5.8E-4
0.59224	5.77E-4
0.59484	5.75E-4
0.59745	5.72E-4
0.60007	5.69E-4
0.60271	5.67E-4
0.60535	5.64E-4
0.60801	5.62E-4
0.61068	5.6E-4
0.61336	5.57E-4
0.61605	5.55E-4
0.61876	5.52E-4
0.62148	5.49E-4
0.6242	5.47E-4
0.62694	5.45E-4
0.6297	5.43E-4
0.63246	5.4E-4
0.63524	5.38E-4
0.63803	5.35E-4
0.64082	5.33E-4
0.64364	5.3E-4
0.64646	5.28E-4
0.6493	5.26E-4
0.65215	5.24E-4
0.65502	5.21E-4
0.65789	5.19E-4
0.66078	5.16E-4
0.66368	5.14E-4
0.66659	5.12E-4
0.66952	5.1E-4
0.67246	5.08E-4
0.67541	5.05E-4
0.67837	5.03E-4
0.68135	5.01E-4
0.68434	4.98E-4
0.68735	4.96E-4
0.69037	4.94E-4
0.6934	4.92E-4
0.69644	4.9E-4
0.6995	4.88E-4
0.70257	4.86E-4
0.70565	4.83E-4
0.70875	4.81E-4
0.71186	4.79E-4
0.71499	4.77E-4
0.71813	4.75E-4
0.72128	4.73E-4
0.72445	4.71E-4
0.72762	4.69E-4
0.73082	4.66E-4
0.73403	4.64E-4
0.73725	4.62E-4
0.74049	4.6E-4
0.74374	4.59E-4
0.747	4.57E-4
0.75028	4.55E-4
0.75357	4.52E-4
0.75688	4.5E-4
0.76021	4.48E-4
0.76354	4.46E-4
0.76689	4.44E-4
0.77026	4.43E-4
0.77364	4.41E-4
0.77704	4.39E-4
0.78045	4.37E-4
0.78388	4.35E-4
0.78732	4.33E-4
0.79077	4.31E-4
0.79424	4.29E-4
0.79773	4.28E-4
0.80123	4.26E-4
0.80475	4.24E-4
0.80828	4.22E-4
0.81183	4.2E-4
0.8154	4.18E-4
0.81898	4.16E-4
0.82257	4.14E-4
0.82618	4.12E-4
0.82981	4.11E-4
0.83345	4.09E-4
0.83711	4.07E-4
0.84079	4.05E-4
0.84448	4.03E-4
0.84818	4.01E-4
0.85191	4E-4
0.85565	3.98E-4
0.8594	3.96E-4
0.86318	3.95E-4
0.86696	3.93E-4
0.87077	3.91E-4
0.87459	3.89E-4
0.87843	3.88E-4
0.88229	3.86E-4
0.88616	3.84E-4
0.89005	3.82E-4
0.89396	3.81E-4
0.89788	3.8E-4
0.90182	3.78E-4
0.90578	3.76E-4
0.90976	3.74E-4
0.91375	3.73E-4
0.91776	3.71E-4
0.92179	3.69E-4
0.92584	3.67E-4
0.9299	3.66E-4
0.93399	3.65E-4
0.93809	3.63E-4
0.94221	3.61E-4
0.94634	3.6E-4
0.9505	3.58E-4
0.95467	3.56E-4
0.95886	3.55E-4
0.96307	3.53E-4
0.9673	3.51E-4
0.97154	3.51E-4
0.97581	3.49E-4
0.98009	3.47E-4
0.98439	3.46E-4
0.98872	3.44E-4
0.99306	3.43E-4
0.99741	3.41E-4
1.00179	3.39E-4
1.00619	3.38E-4
1.01061	3.36E-4
1.01505	3.36E-4
1.0195	3.34E-4
1.02398	3.33E-4
1.02847	3.31E-4
1.03299	3.29E-4
1.03752	3.28E-4
1.04208	3.26E-4
1.04665	3.25E-4
1.05125	3.23E-4
1.05586	3.22E-4
1.0605	3.21E-4
1.06515	3.2E-4
1.06983	3.18E-4
1.07452	3.17E-4
1.07924	3.15E-4
1.08398	3.14E-4
1.08874	3.12E-4
1.09352	3.11E-4
1.09832	3.09E-4
1.10314	3.08E-4
1.10798	3.06E-4
1.11284	3.06E-4
1.11773	3.05E-4
1.12264	3.03E-4
1.12756	3.02E-4
1.13251	3E-4
1.13749	2.99E-4
1.14248	2.98E-4
1.1475	2.96E-4
1.15253	2.95E-4
1.15759	2.93E-4
1.16267	2.92E-4
1.16778	2.92E-4
1.1729	2.9E-4
1.17805	2.89E-4
1.18322	2.88E-4
1.18842	2.86E-4
1.19364	2.85E-4
1.19888	2.84E-4
1.20414	2.82E-4
1.20942	2.81E-4
1.21473	2.8E-4
1.22007	2.78E-4
1.22542	2.78E-4
1.2308	2.77E-4
1.23621	2.75E-4
1.24163	2.74E-4
1.24708	2.73E-4
1.25256	2.71E-4
1.25806	2.7E-4
1.26358	2.69E-4
1.26913	2.68E-4
1.2747	2.66E-4
1.28029	2.65E-4
1.28591	2.64E-4
1.29156	2.63E-4
1.29723	2.62E-4
1.30292	2.61E-4
1.30864	2.6E-4
1.31439	2.59E-4
1.32016	2.58E-4
1.32595	2.56E-4
1.33177	2.55E-4
1.33762	2.54E-4
1.34349	2.53E-4
1.34939	2.52E-4
1.35531	2.5E-4
1.36126	2.49E-4
1.36724	2.49E-4
1.37324	2.48E-4
1.37927	2.47E-4
1.38532	2.46E-4
1.39141	2.44E-4
1.39751	2.43E-4
1.40365	2.42E-4
1.40981	2.41E-4
1.416	2.4E-4
1.42222	2.39E-4
1.42846	2.38E-4
1.43473	2.36E-4
1.44103	2.35E-4
1.44735	2.35E-4
1.45371	2.34E-4
1.46009	2.33E-4
1.4665	2.32E-4
1.47294	2.31E-4
1.4794	2.3E-4
1.4859	2.29E-4
1.49242	2.28E-4
1.49897	2.27E-4
1.50555	2.25E-4
1.51216	2.24E-4
1.5188	2.23E-4
1.52547	2.22E-4
1.53216	2.21E-4
1.53889	2.21E-4
1.54565	2.2E-4
1.55243	2.19E-4
1.55925	2.18E-4
1.56609	2.17E-4
1.57297	2.16E-4
1.57987	2.15E-4
1.58681	2.14E-4
1.59377	2.13E-4
1.60077	2.12E-4
1.6078	2.11E-4
1.61485	2.1E-4
1.62194	2.09E-4
1.62906	2.08E-4
1.63621	2.08E-4
1.6434	2.07E-4
1.65061	2.06E-4
1.65786	2.05E-4
1.66514	2.04E-4
1.67245	2.03E-4
1.67979	2.02E-4
1.68716	2.01E-4
1.69457	2E-4
1.70201	2E-4
1.70948	1.99E-4
1.71698	1.98E-4
1.72452	1.97E-4
1.73209	1.96E-4
1.73969	1.95E-4
1.74733	1.94E-4
1.755	1.94E-4
1.76271	1.93E-4
1.77045	1.92E-4
1.77822	1.91E-4
1.78602	1.9E-4
1.79386	1.9E-4
1.80174	1.89E-4
1.80965	1.88E-4
1.81759	1.87E-4
1.82557	1.86E-4
1.83359	1.85E-4
1.84163	1.84E-4
1.84972	1.83E-4
1.85784	1.83E-4
1.866	1.82E-4
1.87419	1.81E-4
1.88241	1.8E-4
1.89068	1.8E-4
1.89898	1.79E-4
1.90731	1.78E-4
1.91569	1.78E-4
1.9241	1.77E-4
1.93254	1.76E-4
1.94103	1.75E-4
1.94955	1.74E-4
1.95811	1.73E-4
1.9667	1.73E-4
1.97534	1.72E-4
1.98401	1.71E-4
1.99272	1.7E-4
2.00146	1.69E-4
