# Energy(eV) epsilon_i
0	0
0.028	0.0115
0.0561	0.023
0.0841	0.0345
0.1121	0.0461
0.1402	0.0579
0.1682	0.0697
0.1963	0.0817
0.2243	0.0939
0.2523	0.1063
0.2804	0.119
0.3084	0.1319
0.3364	0.1452
0.3645	0.1589
0.3925	0.1729
0.4206	0.1874
0.4486	0.2024
0.4766	0.218
0.5047	0.2343
0.5327	0.2512
0.5607	0.269
0.5888	0.2876
0.6168	0.3073
0.6449	0.3282
0.6729	0.3504
0.7009	0.3741
0.729	0.3995
0.757	0.427
0.785	0.457
0.8131	0.4899
0.8411	0.5264
0.8692	0.5672
0.8972	0.6136
0.9252	0.6669
0.9533	0.7289
0.9813	0.8013
1.0093	0.8857
1.0374	0.9833
1.0654	1.095
1.0934	1.221
1.1215	1.3609
1.1495	1.5133
1.1776	1.677
1.2056	1.8514
1.2336	2.0374
1.2617	2.2374
1.2897	2.4551
1.3177	2.6938
1.3458	2.9557
1.3738	3.2414
1.4019	3.5492
1.4299	3.8742
1.4579	4.2096
1.486	4.5502
1.514	4.8964
1.542	5.2547
1.5701	5.6364
1.5981	6.0549
1.6262	6.5243
1.6542	7.0559
1.6822	7.6557
1.7103	8.3221
1.7383	9.0484
1.7663	9.8248
1.7944	10.6376
1.8224	11.4669
1.8505	12.2862
1.8785	13.0722
1.9065	13.815
1.9346	14.5198
1.9626	15.197
1.9906	15.8527
2.0187	16.4865
2.0467	17.091
2.0747	17.6537
2.1028	18.1627
2.1308	18.6126
2.1589	19.0019
2.1869	19.322
2.2149	19.5542
2.243	19.6814
2.271	19.7026
2.299	19.6381
2.3271	19.5166
2.3551	19.3572
2.3832	19.1661
2.4112	18.9501
2.4392	18.7275
2.4673	18.5241
2.4953	18.3617
2.5233	18.2512
2.5514	18.1895
2.5794	18.1629
2.6075	18.1548
2.6355	18.155
2.6635	18.1597
2.6916	18.1635
2.7196	18.1529
2.7476	18.1108
2.7757	18.0263
2.8037	17.898
2.8318	17.7275
2.8598	17.5124
2.8878	17.2522
2.9159	16.9568
2.9439	16.6464
2.9719	16.342
3	16.0572
3.028	15.799
3.056	15.5741
3.0841	15.3932
3.1121	15.2677
3.1402	15.2012
3.1682	15.1844
3.1962	15.2018
3.2243	15.2421
3.2523	15.304
3.2803	15.3909
3.3084	15.5016
3.3364	15.6263
3.3645	15.7518
3.3925	15.8694
3.4205	15.9779
3.4486	16.0816
3.4766	16.1863
3.5046	16.2966
3.5327	16.4145
3.5607	16.5406
3.5888	16.6766
3.6168	16.8247
3.6448	16.9825
3.6729	17.1423
3.7009	17.2974
3.7289	17.4477
3.757	17.5972
3.785	17.7426
3.8131	17.8677
3.8411	17.951
3.8691	17.9829
3.8972	17.9714
3.9252	17.9325
3.9532	17.8769
3.9813	17.8081
4.0093	17.7268
4.0373	17.6329
4.0654	17.5243
4.0934	17.3975
4.1215	17.2509
4.1495	17.0894
4.1775	16.9238
4.2056	16.768
4.2336	16.6319
4.2616	16.516
4.2897	16.4093
4.3177	16.294
4.3458	16.1538
4.3738	15.9809
4.4018	15.7789
4.4299	15.56
4.4579	15.3394
4.4859	15.1287
4.514	14.9342
4.542	14.7567
4.5701	14.5932
4.5981	14.4402
4.6261	14.2979
4.6542	14.1706
4.6822	14.0615
4.7102	13.9668
4.7383	13.8776
4.7663	13.7842
4.7944	13.6796
4.8224	13.5613
4.8504	13.4299
4.8785	13.2873
4.9065	13.1349
4.9345	12.9739
4.9626	12.8065
4.9906	12.6345
5.0186	12.4562
5.0467	12.2682
5.0747	12.0691
5.1028	11.8618
5.1308	11.6526
5.1588	11.4479
5.1869	11.2525
5.2149	11.0682
5.2429	10.8921
5.271	10.7169
5.299	10.5337
5.3271	10.3373
5.3551	10.1288
5.3831	9.9153
5.4112	9.7072
5.4392	9.5132
5.4672	9.3364
5.4953	9.1728
5.5233	9.0143
5.5514	8.8541
5.5794	8.6904
5.6074	8.5252
5.6355	8.3615
5.6635	8.2022
5.6915	8.0512
5.7196	7.9128
5.7476	7.7881
5.7757	7.6735
5.8037	7.5624
5.8317	7.4489
5.8598	7.3303
5.8878	7.2073
5.9158	7.0815
5.9439	6.9531
5.9719	6.82
5.9999	6.6795
6.028	6.5284
6.056	6.3642
6.0841	6.1867
6.1121	6.0003
6.1401	5.8143
6.1682	5.639
6.1962	5.4821
6.2242	5.3459
6.2523	5.227
6.2803	5.1189
6.3084	5.0141
6.3364	4.9052
6.3644	4.7874
6.3925	4.6597
6.4205	4.5258
6.4485	4.3923
6.4766	4.2656
6.5046	4.1496
6.5327	4.0453
6.5607	3.9519
6.5887	3.8672
6.6168	3.788
6.6448	3.7108
6.6728	3.6328
6.7009	3.5523
6.7289	3.4693
6.757	3.3854
6.785	3.3017
6.813	3.2189
6.8411	3.1372
6.8691	3.0577
6.8971	2.9826
6.9252	2.9135
6.9532	2.8503
6.9812	2.7913
7.0093	2.734
7.0373	2.6761
7.0654	2.6169
7.0934	2.5572
7.1214	2.4989
7.1495	2.4432
7.1775	2.39
7.2055	2.338
7.2336	2.2853
7.2616	2.2309
7.2897	2.1747
7.3177	2.1178
7.3457	2.0613
7.3738	2.0069
7.4018	1.9559
7.4298	1.9095
7.4579	1.8678
7.4859	1.8297
7.514	1.7932
7.542	1.7562
7.57	1.7175
7.5981	1.6774
7.6261	1.6371
7.6541	1.5972
7.6822	1.558
7.7102	1.5196
7.7383	1.4814
7.7663	1.4429
7.7943	1.4035
7.8224	1.3631
7.8504	1.3224
7.8784	1.2823
7.9065	1.2434
7.9345	1.2064
7.9625	1.1717
7.9906	1.1396
8.0186	1.1097
8.0467	1.0813
8.0747	1.0545
8.1027	1.0298
8.1308	1.0077
8.1588	0.9879
8.1868	0.9698
8.2149	0.9524
8.2429	0.9347
8.271	0.9162
8.299	0.8969
8.327	0.8771
8.3551	0.8577
8.3831	0.8394
8.4111	0.8225
8.4392	0.8069
8.4672	0.7925
8.4953	0.7788
8.5233	0.7656
8.5513	0.7532
8.5794	0.7418
8.6074	0.7316
8.6354	0.7228
8.6635	0.7151
8.6915	0.7076
8.7196	0.6993
8.7476	0.6889
8.7756	0.6758
8.8037	0.6606
8.8317	0.6446
8.8597	0.6291
8.8878	0.6148
8.9158	0.6015
8.9438	0.5892
8.9719	0.5772
8.9999	0.5653
9.028	0.5531
9.056	0.5401
9.084	0.5264
9.1121	0.5122
9.1401	0.498
9.1681	0.4842
9.1962	0.4711
9.2242	0.4584
9.2523	0.4455
9.2803	0.4324
9.3083	0.4191
9.3364	0.4059
9.3644	0.3932
9.3924	0.3813
9.4205	0.3705
9.4485	0.3609
9.4766	0.3518
9.5046	0.3429
9.5326	0.3339
9.5607	0.3247
9.5887	0.3155
9.6167	0.3067
9.6448	0.2982
9.6728	0.2898
9.7009	0.2813
9.7289	0.2724
9.7569	0.2632
9.785	0.2537
9.813	0.2442
9.841	0.2345
9.8691	0.225
9.8971	0.2156
9.9251	0.2066
9.9532	0.1982
9.9812	0.1903
10.0093	0.1831
10.0373	0.1766
10.0653	0.1706
10.0934	0.1649
10.1214	0.1595
10.1494	0.1542
10.1775	0.1489
10.2055	0.1437
10.2336	0.1386
10.2616	0.1334
10.2896	0.1281
10.3177	0.1227
10.3457	0.1174
10.3737	0.1124
10.4018	0.1077
10.4298	0.1034
10.4579	0.0994
10.4859	0.0956
10.5139	0.0919
10.542	0.0882
10.57	0.0846
10.598	0.0813
10.6261	0.0782
10.6541	0.0753
10.6821	0.0727
10.7102	0.0703
10.7382	0.068
10.7663	0.0658
10.7943	0.0638
10.8223	0.0619
10.8504	0.0602
10.8784	0.0586
10.9064	0.0572
10.9345	0.0559
10.9625	0.0547
10.9906	0.0537
11.0186	0.0527
11.0466	0.0518
11.0747	0.0509
11.1027	0.0501
11.1307	0.0494
11.1588	0.0487
11.1868	0.048
11.2149	0.0473
11.2429	0.0467
11.2709	0.0461
11.299	0.0455
11.327	0.045
11.355	0.0444
11.3831	0.0439
11.4111	0.0434
11.4392	0.0429
11.4672	0.0424
11.4952	0.0419
11.5233	0.0415
11.5513	0.041
11.5793	0.0406
11.6074	0.0402
11.6354	0.0398
11.6634	0.0394
11.6915	0.039
11.7195	0.0386
11.7476	0.0382
11.7756	0.0379
11.8036	0.0375
11.8317	0.0372
11.8597	0.0369
11.8877	0.0365
11.9158	0.0362
11.9438	0.0359
11.9719	0.0356
11.9999	0.0353
12.0279	0.035
12.056	0.0347
12.084	0.0345
12.112	0.0342
12.1401	0.0339
12.1681	0.0337
12.1962	0.0335
12.2242	0.0332
12.2522	0.033
12.2803	0.0328
12.3083	0.0326
12.3363	0.0324
12.3644	0.0322
12.3924	0.032
12.4205	0.0318
12.4485	0.0316
12.4765	0.0315
12.5046	0.0313
12.5326	0.0312
12.5606	0.031
12.5887	0.0309
12.6167	0.0308
12.6447	0.0307
12.6728	0.0306
12.7008	0.0305
12.7289	0.0304
12.7569	0.0303
12.7849	0.0303
12.813	0.0303
12.841	0.0302
12.869	0.0302
12.8971	0.0303
12.9251	0.0303
12.9532	0.0304
12.9812	0.0305
13.0092	0.0306
13.0373	0.0307
13.0653	0.0309
13.0933	0.0312
13.1214	0.0315
13.1494	0.0318
13.1775	0.0322
13.2055	0.0327
13.2335	0.0334
13.2616	0.0341
13.2896	0.0351
13.3176	0.0363
13.3457	0.0378
13.3737	0.0397
13.4018	0.042
13.4298	0.0448
13.4578	0.0481
13.4859	0.0517
13.5139	0.0557
13.5419	0.06
13.57	0.0645
13.598	0.0691
13.626	0.0741
13.6541	0.0794
13.6821	0.085
13.7102	0.0908
13.7382	0.0965
13.7662	0.102
13.7943	0.1071
13.8223	0.112
13.8503	0.1167
13.8784	0.1215
13.9064	0.1269
13.9345	0.133
13.9625	0.14
13.9905	0.1475
14.0186	0.1553
14.0466	0.1629
14.0746	0.1698
14.1027	0.1759
14.1307	0.181
14.1588	0.1852
14.1868	0.1886
14.2148	0.1912
14.2429	0.1928
14.2709	0.1934
14.2989	0.1933
14.327	0.1929
14.355	0.1931
14.3831	0.1941
14.4111	0.1962
14.4391	0.1994
14.4672	0.2035
14.4952	0.2084
14.5232	0.2138
14.5513	0.2197
14.5793	0.2259
14.6073	0.232
14.6354	0.2378
14.6634	0.2429
14.6915	0.2468
14.7195	0.2491
14.7475	0.2497
14.7756	0.2489
14.8036	0.2477
14.8316	0.2469
14.8597	0.247
14.8877	0.2478
14.9158	0.2489
14.9438	0.2496
14.9718	0.2493
14.9999	0.2478
15.0279	0.2452
15.0559	0.242
15.084	0.2386
15.112	0.2351
15.1401	0.2319
15.1681	0.229
15.1961	0.2265
15.2242	0.2245
15.2522	0.2229
15.2802	0.2215
15.3083	0.2202
15.3363	0.219
15.3644	0.218
15.3924	0.2174
15.4204	0.2173
15.4485	0.2174
15.4765	0.2175
15.5045	0.2173
15.5326	0.2165
15.5606	0.2151
15.5886	0.2134
15.6167	0.2115
15.6447	0.2097
15.6728	0.2078
15.7008	0.2059
15.7288	0.2038
15.7569	0.2015
15.7849	0.1991
15.8129	0.1967
15.841	0.1944
15.869	0.1923
15.8971	0.1903
15.9251	0.1882
15.9531	0.186
15.9812	0.1836
16.0092	0.181
16.0372	0.1782
16.0653	0.1752
16.0933	0.1721
16.1214	0.1692
16.1494	0.1664
16.1774	0.1636
16.2055	0.1609
16.2335	0.158
16.2615	0.1552
16.2896	0.1526
16.3176	0.1501
16.3457	0.1478
16.3737	0.1455
16.4017	0.143
16.4298	0.1403
16.4578	0.1374
16.4858	0.1344
16.5139	0.1313
16.5419	0.1283
16.5699	0.1254
16.598	0.1227
16.626	0.1203
16.6541	0.1183
16.6821	0.1163
16.7101	0.1144
16.7382	0.1123
16.7662	0.1099
16.7942	0.1073
16.8223	0.1047
16.8503	0.102
16.8784	0.0993
16.9064	0.0966
16.9344	0.094
16.9625	0.0914
16.9905	0.0887
17.0185	0.0858
17.0466	0.0829
17.0746	0.0798
17.1027	0.0767
17.1307	0.0738
17.1587	0.071
17.1868	0.0684
17.2148	0.0659
17.2428	0.0634
17.2709	0.0607
17.2989	0.058
17.327	0.0551
17.355	0.0521
17.383	0.0491
17.4111	0.0463
17.4391	0.0435
17.4671	0.0409
17.4952	0.0385
17.5232	0.0364
17.5512	0.0345
17.5793	0.0328
17.6073	0.0313
17.6354	0.0299
17.6634	0.0287
17.6914	0.0275
17.7195	0.0265
17.7475	0.0255
17.7755	0.0246
17.8036	0.0238
17.8316	0.023
17.8597	0.0224
17.8877	0.0218
17.9157	0.0212
17.9438	0.0206
17.9718	0.0201
17.9998	0.0195
18.0279	0.019
18.0559	0.0185
18.084	0.018
18.112	0.0176
18.14	0.0172
18.1681	0.0168
18.1961	0.0164
18.2241	0.016
18.2522	0.0156
18.2802	0.0152
18.3083	0.0149
18.3363	0.0145
18.3643	0.0142
18.3924	0.0138
18.4204	0.0135
18.4484	0.0131
18.4765	0.0127
18.5045	0.0124
18.5325	0.0121
18.5606	0.0118
18.5886	0.0115
18.6167	0.0113
18.6447	0.011
18.6727	0.0108
18.7008	0.0105
18.7288	0.0103
18.7568	0.01
18.7849	0.0098
18.8129	0.0096
18.841	0.0094
18.869	0.0092
18.897	0.009
18.9251	0.0089
18.9531	0.0087
18.9811	0.0086
19.0092	0.0085
19.0372	0.0084
19.0653	0.0083
19.0933	0.0082
19.1213	0.0081
19.1494	0.008
19.1774	0.0079
19.2054	0.0079
19.2335	0.0078
19.2615	0.0077
19.2896	0.0077
19.3176	0.0076
19.3456	0.0075
19.3737	0.0075
19.4017	0.0074
19.4297	0.0074
19.4578	0.0073
19.4858	0.0072
19.5138	0.0072
19.5419	0.0071
19.5699	0.0071
19.598	0.007
19.626	0.007
19.654	0.0069
19.6821	0.0069
19.7101	0.0068
19.7381	0.0068
19.7662	0.0067
19.7942	0.0067
19.8223	0.0067
19.8503	0.0066
19.8783	0.0066
19.9064	0.0065
19.9344	0.0065
19.9624	0.0064
19.9905	0.0064
20.0185	0.0064
20.0466	0.0063
20.0746	0.0063
20.1026	0.0062
20.1307	0.0062
20.1587	0.0062
20.1867	0.0061
20.2148	0.0061
20.2428	0.0061
20.2709	0.006
20.2989	0.006
20.3269	0.006
20.355	0.0059
20.383	0.0059
20.411	0.0059
20.4391	0.0058
20.4671	0.0058
20.4951	0.0058
20.5232	0.0057
20.5512	0.0057
20.5793	0.0057
20.6073	0.0056
20.6353	0.0056
20.6634	0.0056
20.6914	0.0055
20.7194	0.0055
20.7475	0.0055
20.7755	0.0054
20.8036	0.0054
20.8316	0.0054
20.8596	0.0054
20.8877	0.0053
20.9157	0.0053
20.9437	0.0053
20.9718	0.0053
20.9998	0.0052
21.0279	0.0052
21.0559	0.0052
21.0839	0.0051
21.112	0.0051
21.14	0.0051
21.168	0.0051
21.1961	0.005
21.2241	0.005
21.2522	0.005
21.2802	0.005
21.3082	0.0049
21.3363	0.0049
21.3643	0.0049
21.3923	0.0049
21.4204	0.0049
21.4484	0.0048
21.4764	0.0048
21.5045	0.0048
21.5325	0.0048
21.5606	0.0047
21.5886	0.0047
21.6166	0.0047
21.6447	0.0047
21.6727	0.0046
21.7007	0.0046
21.7288	0.0046
21.7568	0.0046
21.7849	0.0046
21.8129	0.0045
21.8409	0.0045
21.869	0.0045
21.897	0.0045
21.925	0.0045
21.9531	0.0044
21.9811	0.0044
22.0092	0.0044
22.0372	0.0044
22.0652	0.0044
22.0933	0.0043
22.1213	0.0043
22.1493	0.0043
22.1774	0.0043
22.2054	0.0043
22.2335	0.0042
22.2615	0.0042
22.2895	0.0042
22.3176	0.0042
22.3456	0.0042
22.3736	0.0042
22.4017	0.0041
22.4297	0.0041
22.4577	0.0041
22.4858	0.0041
22.5138	0.0041
22.5419	0.004
22.5699	0.004
22.5979	0.004
22.626	0.004
22.654	0.004
22.682	0.004
22.7101	0.0039
22.7381	0.0039
22.7662	0.0039
22.7942	0.0039
22.8222	0.0039
22.8503	0.0039
22.8783	0.0039
22.9063	0.0038
22.9344	0.0038
22.9624	0.0038
22.9905	0.0038
23.0185	0.0038
23.0465	0.0038
23.0746	0.0037
23.1026	0.0037
23.1306	0.0037
23.1587	0.0037
23.1867	0.0037
23.2148	0.0037
23.2428	0.0037
23.2708	0.0036
23.2989	0.0036
23.3269	0.0036
23.3549	0.0036
23.383	0.0036
23.411	0.0036
23.439	0.0036
23.4671	0.0035
23.4951	0.0035
23.5232	0.0035
23.5512	0.0035
23.5792	0.0035
23.6073	0.0035
23.6353	0.0035
23.6633	0.0034
23.6914	0.0034
23.7194	0.0034
23.7475	0.0034
23.7755	0.0034
23.8035	0.0034
23.8316	0.0034
23.8596	0.0034
23.8876	0.0033
23.9157	0.0033
23.9437	0.0033
23.9718	0.0033
23.9998	0.0033
24.0278	0.0033
24.0559	0.0033
24.0839	0.0033
24.1119	0.0032
24.14	0.0032
24.168	0.0032
24.1961	0.0032
24.2241	0.0032
24.2521	0.0032
24.2802	0.0032
24.3082	0.0032
24.3362	0.0032
24.3643	0.0031
24.3923	0.0031
24.4203	0.0031
24.4484	0.0031
24.4764	0.0031
24.5045	0.0031
24.5325	0.0031
24.5605	0.0031
24.5886	0.0031
24.6166	0.003
24.6446	0.003
24.6727	0.003
24.7007	0.003
24.7288	0.003
24.7568	0.003
24.7848	0.003
24.8129	0.003
24.8409	0.003
24.8689	0.0029
24.897	0.0029
24.925	0.0029
24.9531	0.0029
24.9811	0.0029
25.0091	0.0029
25.0372	0.0029
25.0652	0.0029
25.0932	0.0029
25.1213	0.0029
25.1493	0.0028
25.1774	0.0028
25.2054	0.0028
25.2334	0.0028
25.2615	0.0028
25.2895	0.0028
25.3175	0.0028
25.3456	0.0028
25.3736	0.0028
25.4016	0.0028
25.4297	0.0028
25.4577	0.0027
25.4858	0.0027
25.5138	0.0027
25.5418	0.0027
25.5699	0.0027
25.5979	0.0027
25.6259	0.0027
25.654	0.0027
25.682	0.0027
25.7101	0.0027
25.7381	0.0027
25.7661	0.0027
25.7942	0.0026
25.8222	0.0026
25.8502	0.0026
25.8783	0.0026
25.9063	0.0026
25.9344	0.0026
25.9624	0.0026
25.9904	0.0026
26.0185	0.0026
26.0465	0.0026
26.0745	0.0026
26.1026	0.0026
26.1306	0.0025
26.1587	0.0025
26.1867	0.0025
26.2147	0.0025
26.2428	0.0025
26.2708	0.0025
26.2988	0.0025
26.3269	0.0025
26.3549	0.0025
26.3829	0.0025
26.411	0.0025
26.439	0.0025
26.4671	0.0025
26.4951	0.0024
26.5231	0.0024
26.5512	0.0024
26.5792	0.0024
26.6072	0.0024
26.6353	0.0024
26.6633	0.0024
26.6914	0.0024
26.7194	0.0024
26.7474	0.0024
26.7755	0.0024
26.8035	0.0024
26.8315	0.0024
26.8596	0.0024
26.8876	0.0023
26.9157	0.0023
26.9437	0.0023
26.9717	0.0023
26.9998	0.0023
27.0278	0.0023
27.0558	0.0023
27.0839	0.0023
27.1119	0.0023
27.14	0.0023
27.168	0.0023
27.196	0.0023
27.2241	0.0023
27.2521	0.0023
27.2801	0.0023
27.3082	0.0023
27.3362	0.0022
27.3642	0.0022
27.3923	0.0022
27.4203	0.0022
27.4484	0.0022
27.4764	0.0022
27.5044	0.0022
27.5325	0.0022
27.5605	0.0022
27.5885	0.0022
27.6166	0.0022
27.6446	0.0022
27.6727	0.0022
27.7007	0.0022
27.7287	0.0022
27.7568	0.0022
27.7848	0.0021
27.8128	0.0021
27.8409	0.0021
27.8689	0.0021
27.897	0.0021
27.925	0.0021
27.953	0.0021
27.9811	0.0021
28.0091	0.0021
28.0371	0.0021
28.0652	0.0021
28.0932	0.0021
28.1213	0.0021
28.1493	0.0021
28.1773	0.0021
28.2054	0.0021
28.2334	0.0021
28.2614	0.0021
28.2895	0.0021
28.3175	0.002
28.3455	0.002
28.3736	0.002
28.4016	0.002
28.4297	0.002
28.4577	0.002
28.4857	0.002
28.5138	0.002
28.5418	0.002
28.5698	0.002
28.5979	0.002
28.6259	0.002
28.654	0.002
28.682	0.002
28.71	0.002
28.7381	0.002
28.7661	0.002
28.7941	0.002
28.8222	0.002
28.8502	0.002
28.8783	0.002
28.9063	0.0019
28.9343	0.0019
28.9624	0.0019
28.9904	0.0019
29.0184	0.0019
29.0465	0.0019
29.0745	0.0019
29.1026	0.0019
29.1306	0.0019
29.1586	0.0019
29.1867	0.0019
29.2147	0.0019
29.2427	0.0019
29.2708	0.0019
29.2988	0.0019
29.3268	0.0019
29.3549	0.0019
29.3829	0.0019
29.411	0.0019
29.439	0.0019
29.467	0.0019
29.4951	0.0019
29.5231	0.0019
29.5511	0.0019
29.5792	0.0018
29.6072	0.0018
29.6353	0.0018
29.6633	0.0018
29.6913	0.0018
29.7194	0.0018
29.7474	0.0018
29.7754	0.0018
29.8035	0.0018
29.8315	0.0018
29.8596	0.0018
29.8876	0.0018
29.9156	0.0018
29.9437	0.0018
29.9717	0.0018
29.9997	0.0018
30.0278	0.0018
30.0558	0.0018
30.0839	0.0018
30.1119	0.0018
30.1399	0.0018
30.168	0.0018
30.196	0.0018
30.224	0.0018
30.2521	0.0018
30.2801	0.0018
30.3081	0.0018
30.3362	0.0018
30.3642	0.0018
30.3923	0.0017
30.4203	0.0017
30.4483	0.0017
30.4764	0.0017
30.5044	0.0017
30.5324	0.0017
30.5605	0.0017
30.5885	0.0017
30.6166	0.0017
30.6446	0.0017
30.6726	0.0017
30.7007	0.0017
30.7287	0.0017
30.7567	0.0017
30.7848	0.0017
30.8128	0.0017
30.8409	0.0017
30.8689	0.0017
30.8969	0.0017
30.925	0.0017
30.953	0.0017
30.981	0.0017
31.0091	0.0017
31.0371	0.0017
31.0651	0.0017
31.0932	0.0017
31.1212	0.0017
31.1493	0.0017
31.1773	0.0017
31.2053	0.0017
31.2334	0.0017
31.2614	0.0017
31.2894	0.0017
31.3175	0.0017
31.3455	0.0017
31.3736	0.0017
31.4016	0.0017
31.4296	0.0017
31.4577	0.0017
31.4857	0.0016
31.5137	0.0016
31.5418	0.0016
31.5698	0.0016
31.5979	0.0016
31.6259	0.0016
31.6539	0.0016
31.682	0.0016
31.71	0.0016
31.738	0.0016
31.7661	0.0016
31.7941	0.0016
31.8222	0.0016
31.8502	0.0016
31.8782	0.0016
31.9063	0.0016
31.9343	0.0016
31.9623	0.0016
31.9904	0.0016
32.0184	0.0016
32.0464	0.0016
32.0745	0.0016
32.1025	0.0016
32.1306	0.0016
32.1586	0.0016
32.1866	0.0016
32.2147	0.0016
32.2427	0.0016
32.2707	0.0016
32.2988	0.0016
32.3268	0.0016
32.3549	0.0016
32.3829	0.0016
32.4109	0.0016
32.439	0.0016
32.467	0.0016
32.495	0.0016
32.5231	0.0016
32.5511	0.0016
32.5792	0.0016
32.6072	0.0016
32.6352	0.0016
32.6633	0.0016
32.6913	0.0016
32.7193	0.0016
32.7474	0.0016
32.7754	0.0016
32.8035	0.0016
32.8315	0.0016
32.8595	0.0016
32.8876	0.0016
32.9156	0.0016
32.9436	0.0016
32.9717	0.0016
32.9997	0.0016
33.0277	0.0016
33.0558	0.0016
33.0838	0.0016
33.1119	0.0016
33.1399	0.0016
33.1679	0.0016
33.196	0.0016
33.224	0.0016
33.252	0.0016
33.2801	0.0016
33.3081	0.0016
33.3362	0.0016
33.3642	0.0016
33.3922	0.0016
33.4203	0.0016
33.4483	0.0016
33.4763	0.0016
33.5044	0.0016
33.5324	0.0016
33.5605	0.0016
33.5885	0.0016
33.6165	0.0016
33.6446	0.0016
33.6726	0.0016
33.7006	0.0016
33.7287	0.0016
33.7567	0.0016
33.7848	0.0016
33.8128	0.0016
33.8408	0.0016
33.8689	0.0016
33.8969	0.0016
33.9249	0.0016
33.953	0.0016
33.981	0.0016
34.009	0.0016
34.0371	0.0016
34.0651	0.0016
34.0932	0.0016
34.1212	0.0016
34.1492	0.0016
34.1773	0.0016
34.2053	0.0016
34.2333	0.0016
34.2614	0.0016
34.2894	0.0016
34.3175	0.0016
34.3455	0.0016
34.3735	0.0016
34.4016	0.0016
34.4296	0.0016
34.4576	0.0016
34.4857	0.0016
34.5137	0.0016
34.5418	0.0016
34.5698	0.0016
34.5978	0.0016
34.6259	0.0016
34.6539	0.0016
34.6819	0.0016
34.71	0.0016
34.738	0.0016
34.7661	0.0016
34.7941	0.0016
34.8221	0.0016
34.8502	0.0016
34.8782	0.0016
34.9062	0.0016
34.9343	0.0016
34.9623	0.0016
34.9903	0.0016
35.0184	0.0016
35.0464	0.0016
35.0745	0.0016
35.1025	0.0016
35.1305	0.0016
35.1586	0.0016
35.1866	0.0016
35.2146	0.0016
35.2427	0.0016
35.2707	0.0016
35.2988	0.0016
35.3268	0.0016
35.3548	0.0016
35.3829	0.0016
35.4109	0.0016
35.4389	0.0016
35.467	0.0016
35.495	0.0016
35.5231	0.0016
35.5511	0.0016
35.5791	0.0016
35.6072	0.0016
35.6352	0.0016
35.6632	0.0016
35.6913	0.0017
35.7193	0.0017
35.7474	0.0017
35.7754	0.0017
35.8034	0.0017
35.8315	0.0017
35.8595	0.0017
35.8875	0.0017
35.9156	0.0017
35.9436	0.0017
35.9716	0.0017
35.9997	0.0017
36.0277	0.0017
36.0558	0.0017
36.0838	0.0017
36.1118	0.0017
36.1399	0.0017
36.1679	0.0017
36.1959	0.0017
36.224	0.0017
36.252	0.0017
36.2801	0.0017
36.3081	0.0017
36.3361	0.0017
36.3642	0.0017
36.3922	0.0017
36.4202	0.0017
36.4483	0.0018
36.4763	0.0018
36.5044	0.0018
36.5324	0.0018
36.5604	0.0018
36.5885	0.0018
36.6165	0.0018
36.6445	0.0018
36.6726	0.0018
36.7006	0.0018
36.7287	0.0018
36.7567	0.0018
36.7847	0.0018
36.8128	0.0018
36.8408	0.0018
36.8688	0.0018
36.8969	0.0018
36.9249	0.0018
36.9529	0.0019
36.981	0.0019
37.009	0.0019
37.0371	0.0019
37.0651	0.0019
37.0931	0.0019
37.1212	0.0019
37.1492	0.0019
37.1772	0.0019
37.2053	0.0019
37.2333	0.0019
37.2614	0.0019
37.2894	0.0019
37.3174	0.0019
37.3455	0.002
37.3735	0.002
37.4015	0.002
37.4296	0.002
37.4576	0.002
37.4857	0.002
37.5137	0.002
37.5417	0.002
37.5698	0.002
37.5978	0.002
37.6258	0.002
37.6539	0.0021
37.6819	0.0021
37.71	0.0021
37.738	0.0021
37.766	0.0021
37.7941	0.0021
37.8221	0.0021
37.8501	0.0021
37.8782	0.0021
37.9062	0.0021
37.9342	0.0022
37.9623	0.0022
37.9903	0.0022
38.0184	0.0022
38.0464	0.0022
38.0744	0.0022
38.1025	0.0022
38.1305	0.0022
38.1585	0.0022
38.1866	0.0023
38.2146	0.0023
38.2427	0.0023
38.2707	0.0023
38.2987	0.0023
38.3268	0.0023
38.3548	0.0023
38.3828	0.0024
38.4109	0.0024
38.4389	0.0024
38.467	0.0024
38.495	0.0024
38.523	0.0024
38.5511	0.0025
38.5791	0.0025
38.6071	0.0025
38.6352	0.0025
38.6632	0.0025
38.6913	0.0025
38.7193	0.0026
38.7473	0.0026
38.7754	0.0026
38.8034	0.0026
38.8314	0.0026
38.8595	0.0026
38.8875	0.0027
38.9155	0.0027
38.9436	0.0027
38.9716	0.0027
38.9997	0.0027
39.0277	0.0028
39.0557	0.0028
39.0838	0.0028
39.1118	0.0028
39.1398	0.0029
39.1679	0.0029
39.1959	0.0029
39.224	0.0029
39.252	0.003
39.28	0.003
39.3081	0.003
39.3361	0.003
39.3641	0.0031
39.3922	0.0031
39.4202	0.0031
39.4483	0.0031
39.4763	0.0032
39.5043	0.0032
39.5324	0.0032
39.5604	0.0033
39.5884	0.0033
39.6165	0.0033
39.6445	0.0034
39.6726	0.0034
39.7006	0.0034
39.7286	0.0035
39.7567	0.0035
39.7847	0.0035
39.8127	0.0036
39.8408	0.0036
39.8688	0.0037
39.8968	0.0037
39.9249	0.0037
39.9529	0.0038
39.981	0.0038
40.009	0.0039
40.037	0.0039
40.0651	0.0039
40.0931	0.004
40.1211	0.004
40.1492	0.0041
40.1772	0.0041
40.2053	0.0042
40.2333	0.0042
40.2613	0.0043
40.2894	0.0043
40.3174	0.0044
40.3454	0.0045
40.3735	0.0045
40.4015	0.0046
40.4296	0.0046
40.4576	0.0047
40.4856	0.0048
40.5137	0.0048
40.5417	0.0049
40.5697	0.005
40.5978	0.005
40.6258	0.0051
40.6539	0.0052
40.6819	0.0053
40.7099	0.0053
40.738	0.0054
40.766	0.0055
40.794	0.0056
40.8221	0.0057
40.8501	0.0058
40.8781	0.0059
40.9062	0.006
40.9342	0.0061
40.9623	0.0062
40.9903	0.0063
41.0183	0.0064
41.0464	0.0065
41.0744	0.0066
41.1024	0.0067
41.1305	0.0069
41.1585	0.007
41.1866	0.0071
41.2146	0.0073
41.2426	0.0074
41.2707	0.0075
41.2987	0.0077
41.3267	0.0078
41.3548	0.008
41.3828	0.0082
41.4109	0.0083
41.4389	0.0085
41.4669	0.0087
41.495	0.0089
41.523	0.0091
41.551	0.0093
41.5791	0.0095
41.6071	0.0098
41.6352	0.01
41.6632	0.0102
41.6912	0.0105
41.7193	0.0108
41.7473	0.011
41.7753	0.0113
41.8034	0.0116
41.8314	0.0119
41.8594	0.0123
41.8875	0.0126
41.9155	0.013
41.9436	0.0134
41.9716	0.0138
41.9996	0.0142
42.0277	0.0146
42.0557	0.0151
42.0837	0.0156
42.1118	0.0162
42.1398	0.0167
42.1679	0.0173
42.1959	0.0179
42.2239	0.0186
42.252	0.0193
42.28	0.0201
42.308	0.0209
42.3361	0.0218
42.3641	0.0228
42.3922	0.0238
42.4202	0.0249
42.4482	0.0262
42.4763	0.0275
42.5043	0.0289
42.5323	0.0305
42.5604	0.0323
42.5884	0.0343
42.6165	0.0365
42.6445	0.039
42.6725	0.0418
42.7006	0.0451
42.7286	0.0489
42.7566	0.0533
42.7847	0.0587
42.8127	0.0652
42.8407	0.0731
42.8688	0.083
42.8968	0.0951
42.9249	0.1098
42.9529	0.1274
42.9809	0.1477
43.009	0.1706
43.037	0.1954
43.065	0.2214
43.0931	0.2482
43.1211	0.2753
43.1492	0.3024
43.1772	0.3293
43.2052	0.3554
43.2333	0.3799
43.2613	0.4022
43.2893	0.4224
43.3174	0.4411
43.3454	0.4592
43.3735	0.4778
43.4015	0.4978
43.4295	0.5202
43.4576	0.5458
43.4856	0.5745
43.5136	0.6057
43.5417	0.6389
43.5697	0.6733
43.5978	0.7083
43.6258	0.7433
43.6538	0.7775
43.6819	0.8107
43.7099	0.8423
43.7379	0.8717
43.766	0.898
43.794	0.9198
43.822	0.9355
43.8501	0.9444
43.8781	0.9462
43.9062	0.9415
43.9342	0.931
43.9622	0.9156
43.9903	0.8967
44.0183	0.8759
44.0463	0.8552
44.0744	0.8362
44.1024	0.8198
44.1305	0.8062
44.1585	0.7951
44.1865	0.7861
44.2146	0.7778
44.2426	0.7686
44.2706	0.7568
44.2987	0.7415
44.3267	0.7235
44.3548	0.7043
44.3828	0.6855
44.4108	0.6683
44.4389	0.6528
44.4669	0.6385
44.4949	0.6244
44.523	0.6093
44.551	0.5925
44.5791	0.5737
44.6071	0.5541
44.6351	0.5352
44.6632	0.5179
44.6912	0.5023
44.7192	0.4873
44.7473	0.4718
44.7753	0.4555
44.8033	0.4387
44.8314	0.4227
44.8594	0.4085
44.8875	0.3966
44.9155	0.3871
44.9435	0.3798
44.9716	0.3741
44.9996	0.3702
45.0276	0.3678
45.0557	0.367
45.0837	0.3676
45.1118	0.3694
45.1398	0.3721
45.1678	0.3754
45.1959	0.3791
45.2239	0.383
45.2519	0.3867
45.28	0.3901
45.308	0.393
45.3361	0.3953
45.3641	0.3972
45.3921	0.3987
45.4202	0.4004
45.4482	0.4023
45.4762	0.4048
45.5043	0.4079
45.5323	0.4116
45.5604	0.416
45.5884	0.4205
45.6164	0.4246
45.6445	0.4276
45.6725	0.4291
45.7005	0.4289
45.7286	0.4269
45.7566	0.4232
45.7846	0.4179
45.8127	0.4114
45.8407	0.4034
45.8688	0.3941
45.8968	0.3835
45.9248	0.3719
45.9529	0.3595
45.9809	0.3465
46.0089	0.3327
46.037	0.3181
46.065	0.3029
46.0931	0.2872
46.1211	0.2716
46.1491	0.2562
46.1772	0.2409
46.2052	0.2255
46.2332	0.2097
46.2613	0.1937
46.2893	0.1777
46.3174	0.162
46.3454	0.147
46.3734	0.133
46.4015	0.12
46.4295	0.1078
46.4575	0.0964
46.4856	0.086
46.5136	0.0764
46.5417	0.0677
46.5697	0.06
46.5977	0.0533
46.6258	0.0475
46.6538	0.0424
46.6818	0.0381
46.7099	0.0345
46.7379	0.0315
46.7659	0.0289
46.794	0.0268
46.822	0.025
46.8501	0.0234
46.8781	0.0221
46.9061	0.0209
46.9342	0.0198
46.9622	0.0188
46.9902	0.0179
47.0183	0.0171
47.0463	0.0164
47.0744	0.0157
47.1024	0.0151
47.1304	0.0145
47.1585	0.014
47.1865	0.0135
47.2145	0.013
47.2426	0.0126
47.2706	0.0121
47.2987	0.0118
47.3267	0.0114
47.3547	0.0111
47.3828	0.0107
47.4108	0.0104
47.4388	0.0101
47.4669	0.0098
47.4949	0.0096
47.523	0.0093
47.551	0.0091
47.579	0.0089
47.6071	0.0086
47.6351	0.0084
47.6631	0.0082
47.6912	0.008
47.7192	0.0078
47.7472	0.0077
47.7753	0.0075
47.8033	0.0073
47.8314	0.0072
47.8594	0.007
47.8874	0.0069
47.9155	0.0067
47.9435	0.0066
47.9715	0.0065
47.9996	0.0063
48.0276	0.0062
48.0557	0.0061
48.0837	0.006
48.1117	0.0059
48.1398	0.0058
48.1678	0.0057
48.1958	0.0056
48.2239	0.0055
48.2519	0.0054
48.28	0.0053
48.308	0.0052
48.336	0.0051
48.3641	0.005
48.3921	0.0049
48.4201	0.0048
48.4482	0.0048
48.4762	0.0047
48.5043	0.0046
48.5323	0.0045
48.5603	0.0045
48.5884	0.0044
48.6164	0.0043
48.6444	0.0043
48.6725	0.0042
48.7005	0.0042
48.7285	0.0041
48.7566	0.004
48.7846	0.004
48.8127	0.0039
48.8407	0.0039
48.8687	0.0038
48.8968	0.0038
48.9248	0.0037
48.9528	0.0037
48.9809	0.0036
49.0089	0.0036
49.037	0.0035
49.065	0.0035
49.093	0.0034
49.1211	0.0034
49.1491	0.0033
49.1771	0.0033
49.2052	0.0033
49.2332	0.0032
49.2613	0.0032
49.2893	0.0031
49.3173	0.0031
49.3454	0.0031
49.3734	0.003
49.4014	0.003
49.4295	0.003
49.4575	0.0029
49.4856	0.0029
49.5136	0.0029
49.5416	0.0028
49.5697	0.0028
49.5977	0.0028
49.6257	0.0027
49.6538	0.0027
49.6818	0.0027
49.7098	0.0027
49.7379	0.0026
49.7659	0.0026
49.794	0.0026
49.822	0.0025
49.85	0.0025
49.8781	0.0025
49.9061	0.0025
49.9341	0.0024
49.9622	0.0024
49.9902	0.0024
50.0183	0.0024
50.0463	0.0023
50.0743	0.0023
50.1024	0.0023
50.1304	0.0023
50.1584	0.0023
50.1865	0.0022
50.2145	0.0022
50.2426	0.0022
50.2706	0.0022
50.2986	0.0022
50.3267	0.0021
50.3547	0.0021
50.3827	0.0021
50.4108	0.0021
50.4388	0.0021
50.4669	0.002
50.4949	0.002
50.5229	0.002
50.551	0.002
50.579	0.002
50.607	0.002
50.6351	0.0019
50.6631	0.0019
50.6911	0.0019
50.7192	0.0019
50.7472	0.0019
50.7753	0.0019
50.8033	0.0018
50.8313	0.0018
50.8594	0.0018
50.8874	0.0018
50.9154	0.0018
50.9435	0.0018
50.9715	0.0018
50.9996	0.0017
51.0276	0.0017
51.0556	0.0017
51.0837	0.0017
51.1117	0.0017
51.1397	0.0017
51.1678	0.0017
51.1958	0.0016
51.2239	0.0016
51.2519	0.0016
51.2799	0.0016
51.308	0.0016
51.336	0.0016
51.364	0.0016
51.3921	0.0016
51.4201	0.0016
51.4481	0.0015
51.4762	0.0015
51.5042	0.0015
51.5323	0.0015
51.5603	0.0015
51.5883	0.0015
51.6164	0.0015
51.6444	0.0015
51.6724	0.0015
51.7005	0.0014
51.7285	0.0014
51.7566	0.0014
51.7846	0.0014
51.8126	0.0014
51.8407	0.0014
51.8687	0.0014
51.8967	0.0014
51.9248	0.0014
51.9528	0.0014
51.9809	0.0014
52.0089	0.0013
52.0369	0.0013
52.065	0.0013
52.093	0.0013
52.121	0.0013
52.1491	0.0013
52.1771	0.0013
52.2052	0.0013
52.2332	0.0013
52.2612	0.0013
52.2893	0.0013
52.3173	0.0013
52.3453	0.0012
52.3734	0.0012
52.4014	0.0012
52.4294	0.0012
52.4575	0.0012
52.4855	0.0012
52.5136	0.0012
52.5416	0.0012
52.5696	0.0012
52.5977	0.0012
52.6257	0.0012
52.6537	0.0012
52.6818	0.0012
52.7098	0.0012
52.7379	0.0011
52.7659	0.0011
52.7939	0.0011
52.822	0.0011
52.85	0.0011
52.878	0.0011
52.9061	0.0011
52.9341	0.0011
52.9622	0.0011
52.9902	0.0011
53.0182	0.0011
53.0463	0.0011
53.0743	0.0011
53.1023	0.0011
53.1304	0.0011
53.1584	0.0011
53.1865	0.001
53.2145	0.001
53.2425	0.001
53.2706	0.001
53.2986	0.001
53.3266	0.001
53.3547	0.001
53.3827	0.001
53.4107	0.001
53.4388	0.001
53.4668	0.001
53.4949	0.001
53.5229	0.001
53.5509	0.001
53.579	0.001
53.607	0.001
53.635	0.001
53.6631	0.001
53.6911	0.001
53.7192	9E-4
53.7472	9E-4
53.7752	9E-4
53.8033	9E-4
53.8313	9E-4
53.8593	9E-4
53.8874	9E-4
53.9154	9E-4
53.9435	9E-4
53.9715	9E-4
53.9995	9E-4
54.0276	9E-4
54.0556	9E-4
54.0836	9E-4
54.1117	9E-4
54.1397	9E-4
54.1678	9E-4
54.1958	9E-4
54.2238	9E-4
54.2519	9E-4
54.2799	9E-4
54.3079	9E-4
54.336	9E-4
54.364	8E-4
54.392	8E-4
54.4201	8E-4
54.4481	8E-4
54.4762	8E-4
54.5042	8E-4
54.5322	8E-4
54.5603	8E-4
54.5883	8E-4
54.6163	8E-4
54.6444	8E-4
54.6724	8E-4
54.7005	8E-4
54.7285	8E-4
54.7565	8E-4
54.7846	8E-4
54.8126	8E-4
54.8406	8E-4
54.8687	8E-4
54.8967	8E-4
54.9248	8E-4
54.9528	8E-4
54.9808	8E-4
55.0089	8E-4
55.0369	8E-4
55.0649	8E-4
55.093	8E-4
55.121	8E-4
55.1491	7E-4
55.1771	7E-4
55.2051	7E-4
55.2332	7E-4
55.2612	7E-4
55.2892	7E-4
55.3173	7E-4
55.3453	7E-4
55.3733	7E-4
55.4014	7E-4
55.4294	7E-4
55.4575	7E-4
55.4855	7E-4
55.5135	7E-4
55.5416	7E-4
55.5696	7E-4
55.5976	7E-4
55.6257	7E-4
55.6537	7E-4
55.6818	7E-4
55.7098	7E-4
55.7378	7E-4
55.7659	7E-4
55.7939	7E-4
55.8219	7E-4
55.85	7E-4
55.878	7E-4
55.9061	7E-4
55.9341	7E-4
55.9621	7E-4
55.9902	7E-4
56.0182	7E-4
56.0462	7E-4