# Wavelength(Î¼m) Extinction_cofficient
0.02997	0.09081
0.03027	0.09292
0.03057	0.09509
0.03088	0.09731
0.03119	0.09957
0.0315	0.10189
0.03182	0.10424
0.03213	0.10666
0.03245	0.10913
0.03278	0.11165
0.03311	0.11424
0.03344	0.11688
0.03377	0.11957
0.03411	0.12221
0.03445	0.12469
0.0348	0.12681
0.03514	0.12895
0.03549	0.13114
0.03585	0.13337
0.03621	0.13655
0.03657	0.1399
0.03694	0.14321
0.03731	0.14649
0.03768	0.14974
0.03805	0.15296
0.03844	0.15614
0.03882	0.15929
0.03921	0.16242
0.0396	0.16551
0.04	0.16857
0.0404	0.1716
0.0408	0.17507
0.04121	0.18025
0.04162	0.18726
0.04204	0.19503
0.04246	0.20326
0.04288	0.21184
0.04331	0.22075
0.04374	0.23005
0.04418	0.24008
0.04462	0.24909
0.04507	0.25326
0.04552	0.25229
0.04597	0.25001
0.04643	0.25246
0.0469	0.26046
0.04737	0.27002
0.04784	0.28039
0.04832	0.29134
0.0488	0.30288
0.04929	0.31381
0.04978	0.3233
0.05028	0.33229
0.05078	0.34115
0.05129	0.34981
0.0518	0.3531
0.05232	0.35457
0.05284	0.36314
0.05337	0.37598
0.05391	0.38814
0.05445	0.39717
0.05499	0.41149
0.05554	0.43443
0.0561	0.45294
0.05666	0.46364
0.05722	0.47224
0.05779	0.47968
0.05837	0.48614
0.05896	0.49255
0.05955	0.50151
0.06014	0.51172
0.06074	0.52031
0.06135	0.52936
0.06196	0.54085
0.06258	0.55391
0.06321	0.56606
0.06384	0.57683
0.06448	0.58734
0.06512	0.59769
0.06578	0.60778
0.06643	0.62095
0.0671	0.63549
0.06777	0.64325
0.06845	0.64914
0.06913	0.65813
0.06982	0.66723
0.07052	0.67632
0.07122	0.68542
0.07194	0.69461
0.07266	0.69994
0.07338	0.69993
0.07412	0.69782
0.07486	0.69425
0.07561	0.6896
0.07636	0.68443
0.07713	0.67885
0.0779	0.67297
0.07868	0.66688
0.07946	0.66068
0.08026	0.65451
0.08106	0.64854
0.08187	0.65199
0.08269	0.66594
0.08352	0.67805
0.08435	0.68363
0.08519	0.68607
0.08605	0.68854
0.08691	0.69497
0.08777	0.70673
0.08865	0.71953
0.08954	0.72558
0.09043	0.72425
0.09134	0.72995
0.09225	0.73192
0.09317	0.71952
0.09411	0.70287
0.09505	0.67745
0.096	0.67634
0.09696	0.69378
0.09793	0.7014
0.09891	0.7105
0.09989	0.72078
0.10089	0.72967
0.1019	0.73628
0.10292	0.74056
0.10395	0.74098
0.10499	0.74238
0.10604	0.73412
0.1071	0.70917
0.10817	0.67681
0.10925	0.6345
0.11035	0.60248
0.11145	0.58549
0.11256	0.56886
0.11369	0.55182
0.11483	0.52474
0.11597	0.54422
0.11713	0.58403
0.1183	0.61037
0.11949	0.63646
0.12068	0.62363
0.12189	0.57926
0.12311	0.49868
0.12434	0.41889
0.12558	0.36082
0.12684	0.30602
0.12811	0.25177
0.12939	0.19806
0.13068	0.14722
0.13199	0.1262
0.13331	0.1054
0.13464	0.08479
0.13599	0.06667
0.13734	0.05983
0.13872	0.05307
0.14011	0.04656
0.14151	0.04079
0.14292	0.03577
0.14435	0.03558
0.14579	0.03539
0.14725	0.03411
0.14872	0.02874
0.15021	0.02342
0.15171	0.0195
0.15323	0.01914
0.15476	0.01879
0.15631	0.01856
0.15787	0.01833
0.15945	0.01809
0.16105	0.01769
0.16266	0.01721
0.16428	0.01633
0.16593	0.01524
0.16758	0.01417
0.16926	0.0131
0.17095	0.01205
0.17266	0.0106
0.17439	0.00898
0.17613	0.00866
0.17789	0.00839
0.17967	0.00813
0.18147	0.00788
0.18328	0.00762
0.18512	0.00737
0.18697	0.00711
0.18884	0.00687
0.19072	0.00663
0.19263	0.00654
0.19456	0.00645
0.1965	0.00636
0.19847	0.00627
0.20045	0.00618
0.20246	0.0061
0.20448	0.00602
0.20652	0.00594
0.20859	0.00586
0.21068	0.00578
0.21278	0.0057
0.21491	0.00563
0.21706	0.00555
0.21923	0.00548
0.22142	0.00541
0.22364	0.00534
0.22587	0.00527
0.22813	0.0052
0.23041	0.00514
0.23272	0.00507
0.23504	0.00501
0.23739	0.00495
0.23977	0.00488
0.24216	0.00482
0.24459	0.00476
0.24703	0.00471
0.2495	0.00465
0.252	0.00459
0.25451	0.00454
0.25706	0.00448
0.25963	0.00443
0.26223	0.00437
0.26485	0.00432
0.2675	0.00427
0.27017	0.00422
0.27287	0.00417
0.2756	0.00412
0.27836	0.00407
0.28114	0.00402
0.28395	0.00398
0.28679	0.00393
0.28966	0.00388
0.29256	0.00384
0.29548	0.00379
0.29843	0.00375
0.30142	0.00371
0.30443	0.00366
0.30748	0.00362
0.31055	0.00358
0.31366	0.00354
0.31679	0.0035
0.31996	0.00346
0.32316	0.00342
0.32639	0.00338
0.32965	0.00335
0.33295	0.00331
0.33628	0.00327
0.33964	0.00324
0.34304	0.0032
0.34647	0.00316
0.34993	0.00313
0.35343	0.00309
0.35697	0.00306
0.36053	0.00303
0.36414	0.00299
0.36778	0.00296
0.37146	0.00293
0.37517	0.0029
0.37892	0.00286
0.38271	0.00283
0.38654	0.0028
0.39041	0.00277
0.39431	0.00274
0.39825	0.00271
0.40223	0.00268
0.40625	0.00265
0.41032	0.00263
0.41442	0.0026
0.41856	0.00257
0.42275	0.00254
0.42698	0.00252
0.43124	0.00249
0.43556	0.00246
0.43991	0.00244
0.44431	0.00241
0.44875	0.00239
0.45324	0.00236
0.45777	0.00233
0.46235	0.00231
0.46697	0.00229
0.47164	0.00226
0.47636	0.00224
0.48112	0.00222
0.48593	0.00219
0.49079	0.00217
0.4957	0.00215
0.50065	0.00212
0.50566	0.0021
0.51072	0.00208
0.51582	0.00206
0.52098	0.00204
0.52619	0.00201
0.53145	0.00199
0.53677	0.00197
0.54213	0.00195
0.54756	0.00193
0.55303	0.00191
0.55856	0.00189
0.56415	0.00187
0.56979	0.00185
0.57548	0.00184
0.58124	0.00182
0.58705	0.0018
0.59292	0.00178
0.59885	0.00176
0.60484	0.00174
0.61088	0.00173
0.61699	0.00171
0.62316	0.00169
0.62939	0.00167
0.63568	0.00166
0.64204	0.00164
0.64846	0.00162
0.65495	0.00161
0.66149	0.00159
0.66811	0.00157
0.67479	0.00156
0.68154	0.00154
0.68835	0.00152
0.69523	0.00151
0.70218	0.00149
0.70921	0.00148
0.7163	0.00146
0.72346	0.00145
0.73069	0.00143
0.738	0.00142
0.74538	0.00141
0.75283	0.00139
0.76036	0.00138
0.76796	0.00136
0.77564	0.00135
0.7834	0.00134
0.79123	0.00132
0.79914	0.00131
0.80713	0.00129
0.8152	0.00128
0.82335	0.00127
0.83159	0.00126
0.8399	0.00124
0.8483	0.00123
0.85678	0.00122
0.86535	0.00121
0.874	0.00119
0.88274	0.00118
0.89157	0.00117
0.90048	0.00116
0.90949	0.00115
0.91858	0.00113
0.92777	0.00112
0.93704	0.00111
0.94641	0.0011
0.95588	0.00109
0.96543	0.00108
0.97509	0.00107
0.98484	0.00106
0.99468	0.00105
1.00463	0.00104
1.01468	0.00103
1.02482	0.00102
1.03507	0.00101
1.04542	9.96E-4
1.05587	9.86E-4
1.06643	9.76E-4
1.07709	9.66E-4
1.08786	9.56E-4
1.09874	9.47E-4
1.10973	9.37E-4
1.12082	9.28E-4
1.13203	9.19E-4
1.14335	9.09E-4
1.15478	9E-4
1.16633	8.91E-4
1.17799	8.82E-4
1.18977	8.74E-4
1.20167	8.65E-4
1.21368	8.56E-4
1.22582	8.48E-4
1.23807	8.39E-4
1.25045	8.31E-4
1.26296	8.22E-4
1.27558	8.14E-4
1.28834	8.06E-4
1.30122	7.98E-4
1.31423	7.9E-4
1.32737	7.82E-4
1.34065	7.74E-4
1.35405	7.67E-4
1.36759	7.59E-4
1.38127	7.51E-4
1.39508	7.44E-4
1.40903	7.37E-4
1.42311	7.29E-4
1.43734	7.22E-4
1.45172	7.15E-4
1.46623	7.08E-4
1.48089	7.01E-4
1.4957	6.94E-4
1.51066	6.87E-4